07/06/22	12:47 PM
Experiment Type:	Generic
Modulated Cross Correlation
Scattering angle:	104.0
Duration (s):	300
Wavelength (nm):	660.0
Refractive index:	1.330
Viscosity (mPas):	0.890
Temperature (K):	298.1
Laser intensity (mW):	13.950600
Average Count rate  A (kHz):	208.7
Average Count rate  B (kHz):	165.3
Intercept:	1.0000
Cumulant 1st	NaN
Cumulant 2nd	NaN	NaN
Cumulant 3rd	NaN	NaN

Lag time (s)         g2-1
1.600000E-6	0.376289
3.200000E-6	0.371359
4.800000E-6	0.350286
6.400000E-6	0.330248
8.000000E-6	0.311921
9.600000E-6	0.293928
1.120000E-5	0.277671
1.280000E-5	0.262144
1.440000E-5	0.247675
1.600000E-5	0.234118
1.760000E-5	0.221497
1.920000E-5	0.208945
2.080000E-5	0.197651
2.240000E-5	0.187028
2.400000E-5	0.176189
2.560000E-5	0.167003
2.720000E-5	0.157896
3.040000E-5	0.141327
3.360000E-5	0.126019
3.680000E-5	0.112849
4.000000E-5	0.101695
4.320000E-5	0.091086
4.640000E-5	0.081895
4.960000E-5	0.073717
5.280000E-5	0.066729
5.920000E-5	0.054797
6.560000E-5	0.044469
7.200000E-5	0.036780
7.840000E-5	0.030422
8.480000E-5	0.024923
9.120000E-5	0.020474
9.760000E-5	0.017173
0.000104	0.014343
0.000117	0.010247
0.000130	0.007466
0.000142	0.005350
0.000155	0.004507
0.000168	0.003558
0.000181	0.002874
0.000194	0.002705
0.000206	0.002378
0.000232	0.001918
0.000258	0.001419
0.000283	0.001486
0.000309	0.001027
0.000334	0.000506
0.000360	0.000366
0.000386	0.000393
0.000411	0.000719
0.000462	0.000561
0.000514	0.000532
0.000565	0.000520
0.000616	0.000212
0.000667	0.000120
0.000718	0.000124
0.000770	0.000103
0.000821	-1.261126E-5
0.000923	0.000257
0.001026	0.000689
0.001128	0.000146
0.001230	0.000498
0.001333	0.000318
0.001435	3.143210E-5
0.001538	0.000725
0.001640	0.000680
0.001845	0.000142
0.002050	-0.000108
0.002254	0.000333
0.002459	0.000507
0.002664	0.000471
0.002869	0.000249
0.003074	0.000239
0.003278	0.000195
0.003688	0.000468
0.004098	-9.316723E-5
0.004507	0.000372
0.004917	8.533193E-5
0.005326	0.000274
0.005736	0.000229
0.006146	0.000428
0.006555	8.108001E-5
0.007374	0.000276
0.008194	0.000233
0.009013	0.000316
0.009832	0.000157
0.010651	7.143526E-5
0.011470	9.591639E-5
0.012290	0.000331
0.013109	0.000379
0.014747	0.000210
0.016386	0.000296
0.018024	0.000293
0.019662	0.000391
0.021301	0.000347
0.022939	0.000324
0.024578	0.000300
0.026216	0.000286
0.029493	0.000315
0.032770	0.000302
0.036046	0.000215
0.039323	0.000368
0.042600	0.000307
0.045877	0.000274
0.049154	0.000286
0.052430	0.000312
0.058984	0.000327
0.065538	0.000377
0.072091	0.000273
0.078645	0.000412
0.085198	0.000402
0.091752	0.000322
0.098306	0.000332
0.104859	0.000327
0.117966	0.000336
0.131074	0.000315
0.144181	0.000393
0.157288	0.000449
0.170395	0.000338
0.183502	0.000401
0.196610	0.000427
0.209717	0.000422
0.235931	0.000421
0.262146	0.000452
0.288360	0.000417
0.314574	0.000471
0.340789	0.000492
0.367003	0.000489
0.393218	0.000515
0.419432	0.000544
0.471861	0.000540
0.524290	0.000579
0.576718	0.000575
0.629147	0.000613
0.681576	0.000676
0.734005	0.000680
0.786434	0.000738
0.838862	0.000740
0.943720	0.000784
1.048578	0.000833
1.153435	0.000889
1.258293	0.000964
1.363150	0.000995
1.468008	0.001012
1.572866	0.001068
1.677723	0.001103
1.887438	0.001198
2.097154	0.001275
2.306869	0.001349
2.516584	0.001398
2.726299	0.001465
2.936014	0.001513
3.145730	0.001588
3.355445	0.001619
3.774875	0.001605
4.194305	0.001574
4.613736	0.001532
5.033166	0.001469
5.452597	0.001431
5.872027	0.001355
6.291458	0.001297
6.710888	0.001236
7.549749	0.001115
8.388610	0.001014
9.227470	0.000922
10.066331	0.000824
10.905192	0.000717
11.744053	0.000583
12.582913	0.000432
13.421775	0.000328
15.099496	0.000147
16.777218	-4.785455E-5
18.454939	-0.000225
20.132660	-0.000457
21.810383	-0.000645
23.488104	-0.000861
25.165825	-0.001122
26.843548	-0.001279
30.198990	-0.001584
33.554432	-0.001848
36.909878	-0.002078
40.265320	-0.002238
43.620762	-0.002432
46.976208	-0.002648
50.331650	-0.002812
53.687092	-0.002940
60.397980	-0.003236
67.108864	-0.003583
73.819756	-0.003660
80.530640	-0.003858
87.241524	-0.004085
93.952408	-0.004205
100.663300	-0.004459
107.374184	-0.004463
120.795959	-0.004943
134.217728	-0.005574
147.639496	-0.006009
161.061279	-0.006473
174.483047	-0.006089
187.904816	-0.006289
201.326599	-0.006311
214.748367	-0.005706
241.591919	-0.005281
268.435455	-0.002912

Count Rate History (KHz)  CR CHA / CR CHB
0.000000	180.606842	139.331818
0.052429	177.936554	138.378143
0.104858	187.683105	135.707855
0.157286	180.149078	141.639709
0.209715	163.707733	133.247375
0.262144	177.364349	134.944916
0.314573	183.258057	134.754181
0.367002	191.421509	140.094757
0.419430	185.012817	140.037537
0.471859	188.369751	136.260986
0.524288	185.165405	138.111115
0.576717	181.751251	137.100220
0.629146	187.816620	140.190125
0.681574	187.683105	140.056610
0.734003	179.557800	136.528015
0.786432	171.527863	140.476227
0.838861	175.838470	136.489868
0.891290	181.045532	142.669678
0.943718	175.342560	134.792328
0.996147	167.198181	133.762360
1.048576	186.195374	142.307281
1.101005	186.042786	142.765045
1.153434	183.811188	140.380859
1.205862	176.334381	129.699707
1.258291	180.797577	137.844086
1.310720	182.495117	132.770538
1.363149	184.001923	143.184662
1.415578	185.718536	152.072906
1.468006	187.034607	149.173737
1.520435	182.971954	137.252808
1.572864	178.298950	137.672424
1.625293	172.748566	142.669678
1.677722	169.315338	136.585236
1.730150	184.593201	138.378143
1.782579	181.312561	144.500732
1.835008	178.108215	133.342743
1.887437	183.467865	146.045685
1.939866	195.789337	153.484344
1.992294	196.399689	151.882172
2.044723	167.675018	133.247375
2.097152	180.530548	141.563416
2.149581	193.996429	137.577057
2.202010	199.508667	149.784088
2.254438	194.644928	152.797699
2.306867	179.824829	149.135590
2.359296	191.192627	146.274567
2.411725	184.440613	146.884918
2.464154	197.982788	145.721436
2.516582	203.857422	153.961182
2.569011	191.516876	144.786835
2.621440	189.685822	148.315430
2.673869	173.206329	143.527985
2.726298	192.089081	156.135559
2.778726	193.862915	147.495270
2.831155	192.871094	162.067413
2.883584	200.290680	152.740479
2.936013	197.162628	149.669647
2.988442	187.549591	136.928558
3.040870	190.715790	146.827698
3.093299	201.206207	140.819550
3.145728	179.634094	147.075653
3.198157	195.980072	159.282684
3.250586	184.860229	149.612427
3.303014	203.533173	162.372589
3.355443	212.383270	161.151886
3.407872	201.587677	164.108276
3.460301	202.808380	167.331696
3.512730	203.933716	166.358948
3.565158	204.124451	171.737671
3.617587	198.726654	163.784027
3.670016	218.925476	164.833069
3.722445	222.625732	174.942017
3.774874	202.732086	162.277222
3.827302	220.088959	165.691376
3.879731	211.296082	174.694061
3.932160	222.282410	167.655945
3.984589	211.715698	168.933868
4.037018	207.424164	170.249939
4.089446	205.173492	161.819458
4.141875	227.317810	171.794891
4.194304	221.385956	175.304413
4.246733	205.745697	164.012909
4.299162	216.121674	174.922943
4.351590	220.394135	169.372559
4.404019	210.533142	159.168243
4.456448	218.296051	162.715912
4.508877	221.767426	174.045563
4.561306	221.748352	181.007385
4.613734	203.971863	173.645020
4.666163	212.593079	170.173645
4.718592	216.178894	171.909332
4.771021	221.729279	183.792114
4.823450	217.781067	160.541534
4.875878	217.685699	172.328949
4.928307	207.328796	175.762177
4.980736	216.674805	174.407959
5.033165	221.958160	173.568726
5.085594	227.813721	170.192719
5.138022	213.375092	173.320770
5.190451	206.680298	174.198151
5.242880	209.827423	167.369843
5.295309	223.541260	175.647736
5.347738	213.680267	165.672302
5.400166	230.636597	171.031952
5.452595	217.399597	175.533295
5.505024	206.260681	167.274475
5.557453	225.105286	176.048279
5.609882	211.639404	175.914764
5.662310	206.146240	162.963867
5.714739	212.383270	179.138184
5.767168	232.906342	174.961090
5.819597	216.274261	171.623230
5.872026	215.244293	175.571442
5.924454	197.143555	167.446136
5.976883	231.227875	174.541473
6.029312	220.355988	167.026520
6.081741	210.056305	168.724060
6.134170	212.631226	174.560547
6.186598	208.511353	168.800354
6.239027	227.775574	177.230835
6.291456	224.075317	176.620483
6.343885	210.609436	166.912079
6.396314	226.745605	175.647736
6.448742	227.718353	177.574158
6.501171	211.639404	169.124603
6.553600	212.459564	166.454315
6.606029	215.873718	174.045563
6.658458	229.434967	181.541443
6.710886	213.222504	169.982910
6.763315	215.339661	161.037445
6.815744	212.459564	173.339844
6.868173	223.369598	180.873871
6.920602	206.317902	171.890259
6.973030	214.233398	172.691345
7.025459	209.331512	166.740417
7.077888	220.756531	185.985565
7.130317	218.181610	172.080994
7.182746	228.538513	178.165436
7.235174	212.497711	176.944733
7.287603	221.672058	172.157288
7.340032	220.184326	173.130035
7.392461	232.658386	177.478790
7.444890	206.584930	165.214539
7.497318	210.742950	168.037415
7.549747	201.721191	173.225403
7.602176	197.620392	156.135559
7.654605	215.473175	164.394379
7.707034	218.238831	172.443390
7.759462	224.914551	171.337128
7.811891	216.178894	177.612305
7.864320	213.279724	162.982941
7.916749	213.012695	168.800354
7.969178	205.707550	172.157288
8.021606	224.704742	173.473358
8.074035	218.772888	178.661346
8.126464	218.200684	181.884766
8.178893	215.454102	174.160004
8.231322	219.593048	174.770355
8.283750	217.266083	167.465210
8.336179	206.680298	165.767670
8.388608	217.285156	176.105499
8.441037	204.200745	165.119171
8.493466	221.443176	163.173676
8.545894	205.116272	170.612335
8.598323	213.279724	160.903931
8.650752	230.541229	177.440643
8.703181	213.069916	172.729492
8.755610	211.277008	168.743134
8.808038	214.061737	170.650482
8.860467	209.255219	164.413452
8.912896	213.966370	165.996552
8.965325	226.383209	171.031952
9.017754	209.140778	173.377991
9.070182	209.121704	168.266296
9.122611	214.595795	172.004700
9.175040	226.287842	181.198120
9.227469	215.053558	166.473389
9.279898	208.015442	169.200897
9.332326	215.663910	170.631409
9.384755	217.609406	173.740387
9.437184	227.088928	170.478821
9.489613	228.958130	172.653198
9.542042	211.982727	171.222687
9.594470	216.655731	163.822174
9.646899	217.685699	170.364380
9.699328	211.982727	172.786713
9.751757	219.173431	176.086426
9.804186	215.263367	170.707703
9.856614	219.650269	171.623230
9.909043	201.034546	161.514282
9.961472	219.326019	174.369812
10.013901	228.290558	171.890259
10.066330	216.598511	165.557861
10.118758	216.388702	174.827576
10.171187	222.339630	171.718597
10.223616	217.685699	177.593231
10.276045	209.064484	172.290802
10.328474	216.102600	172.367096
10.380902	230.731964	175.323486
10.433331	218.353271	167.140961
10.485760	223.941803	170.593262
10.538189	206.108093	171.833038
10.590618	206.832886	177.936554
10.643046	210.342407	163.497925
10.695475	230.922699	174.751282
10.747904	220.413208	170.269012
10.800333	201.988220	169.620514
10.852762	208.930969	167.083740
10.905190	220.870972	170.783997
10.957619	228.214264	176.696777
11.010048	215.625763	177.650452
11.062477	212.726593	180.244446
11.114906	225.868225	182.952881
11.167334	218.315125	169.372559
11.219763	221.710205	175.285339
11.272192	222.415924	181.598663
11.324621	202.903748	165.691376
11.377050	208.702087	179.557800
11.429478	216.541290	168.323517
11.481907	204.181671	164.070129
11.534336	209.217072	159.950256
11.586765	213.336945	180.130005
11.639194	224.285126	171.585083
11.691622	215.206146	171.966553
11.744051	221.271515	170.593262
11.796480	216.884613	171.871185
11.848909	217.761993	180.625916
11.901338	234.470367	180.053711
11.953766	214.691162	168.170929
12.006195	204.811096	162.773132
12.058624	213.203430	172.920227
12.111053	224.018097	171.356201
12.163482	217.266083	173.435211
12.215910	225.830078	174.980164
12.268339	224.361420	182.094574
12.320768	210.399628	175.132751
12.373197	219.955444	177.078247
12.425626	228.900909	181.865692
12.478054	226.116180	179.176331
12.530483	225.563049	170.116425
12.582912	225.162506	173.072815
12.635341	216.674805	164.127350
12.687770	217.151642	176.506042
12.740198	210.056305	172.176361
12.792627	213.413239	173.263550
12.845056	214.214325	172.138214
12.897485	214.767456	167.274475
12.949914	209.655762	180.416107
13.002342	224.323273	172.100067
13.054771	207.691193	176.849365
13.107200	208.148956	172.233582
13.159629	218.868256	171.661377
13.212058	218.296051	164.318085
13.264486	210.514069	163.154602
13.316915	217.838287	169.429779
13.369344	204.734802	168.838501
13.421773	208.454132	166.301727
13.474202	211.620331	173.568726
13.526630	220.813751	181.808472
13.579059	211.181641	169.124603
13.631488	203.189850	169.849396
13.683917	210.990906	167.407990
13.736346	225.582123	174.331665
13.788774	218.544006	171.203613
13.841203	219.669342	169.200897
13.893632	211.963654	166.854858
13.946061	220.890045	166.797638
13.998490	212.364197	173.091888
14.050918	215.892792	172.214508
14.103347	218.009949	169.601440
14.155776	215.606689	166.301727
14.208205	217.037201	182.018280
14.260634	217.895508	167.026520
14.313062	214.843750	175.132751
14.365491	216.960907	169.258118
14.417920	222.167969	159.549713
14.470349	213.794708	174.312592
14.522778	227.775574	177.803040
14.575206	209.388733	171.298981
14.627635	213.165283	164.546967
14.680064	220.928192	167.121887
14.732493	199.813843	165.061951
14.784922	222.206116	170.230865
14.837350	209.026337	158.100128
14.889779	204.334259	168.037415
14.942208	232.276917	175.189972
14.994637	218.124390	168.266296
15.047066	208.663940	177.650452
15.099494	220.375061	170.726776
15.151923	215.568542	164.966583
15.204352	217.685699	175.743103
15.256781	208.339691	171.871185
15.309210	215.950012	173.645020
15.361638	226.287842	169.506073
15.414067	209.617615	168.952942
15.466496	221.614838	173.320770
15.518925	215.454102	167.655945
15.571354	211.982727	170.421600
15.623782	211.963654	166.072845
15.676211	218.219757	181.961060
15.728640	203.704834	163.326263
15.781069	206.241608	169.467926
15.833498	207.881927	165.367126
15.885926	200.500488	171.680450
15.938355	225.028992	166.683197
15.990784	217.094421	174.026489
16.043213	216.178894	172.080994
16.095642	210.170746	164.775848
16.148070	211.849213	165.996552
16.200499	214.366913	168.781281
16.252928	206.928253	168.323517
16.305357	206.222534	160.236359
16.357786	223.484039	182.571411
16.410214	226.440430	179.519653
16.462643	219.898224	172.710419
16.515072	202.102661	164.871216
16.567501	221.443176	171.298981
16.619930	230.789185	179.843903
16.672358	230.026245	174.674988
16.724787	215.492249	174.064636
16.777216	216.541290	175.285339
16.829645	211.448669	172.939301
16.882074	211.219788	160.255432
16.934502	220.050812	163.078308
16.986931	207.576752	169.525146
17.039360	214.557648	171.432495
17.091789	222.034454	164.108276
17.144218	216.884613	173.873901
17.196646	217.552185	166.473389
17.249075	218.410492	172.233582
17.301504	201.568604	162.754059
17.353933	201.892853	170.230865
17.406362	232.524872	173.110962
17.458790	209.426880	170.803070
17.511219	228.328705	170.173645
17.563648	213.947296	154.438019
17.616077	214.576721	171.070099
17.668506	212.230682	169.067383
17.720934	223.331451	170.097351
17.773363	220.527649	175.094604
17.825792	215.511322	177.440643
17.878221	222.625732	170.555115
17.930650	225.753784	170.040131
17.983078	219.497681	168.056488
18.035507	217.361450	166.893005
18.087936	210.857391	171.680450
18.140365	200.843811	165.653229
18.192794	219.573975	173.454285
18.245222	211.582184	175.094604
18.297651	218.124390	161.914825
18.350080	214.977264	175.495148
18.402509	227.127075	181.159973
18.454938	217.018127	168.666840
18.507366	208.053589	173.416138
18.559795	215.320587	174.732208
18.612224	217.761993	165.710449
18.664653	206.680298	168.037415
18.717082	205.421448	178.966522
18.769510	217.590332	171.928406
18.821939	211.658478	169.963837
18.874368	203.342438	168.209076
18.926797	214.862823	162.544250
18.979226	222.454071	169.277191
19.031654	212.936401	171.813965
19.084083	208.129883	164.813995
19.136512	214.099884	172.748566
19.188941	217.380524	176.582336
19.241370	220.832825	164.146423
19.293798	232.353210	178.871155
19.346227	210.380554	174.083710
19.398656	218.124390	170.993805
19.451085	209.712982	165.538788
19.503514	213.756561	171.375275
19.555942	214.958191	176.086426
19.608371	217.208862	178.031921
19.660800	221.138000	179.862976
19.713229	215.167999	173.816681
19.765658	213.451385	166.091919
19.818086	227.336884	173.206329
19.870515	209.388733	176.734924
19.922944	226.650238	170.860291
19.975373	205.631256	174.446106
20.027802	211.315155	169.487000
20.080230	226.707458	172.348022
20.132659	220.966339	172.538757
20.185088	213.298798	161.018372
20.237517	213.699341	167.579651
20.289946	220.756531	169.715881
20.342374	215.339661	169.315338
20.394803	228.118896	176.658630
20.447232	216.846466	171.489716
20.499661	218.315125	178.241730
20.552090	213.203430	164.833069
20.604518	220.031738	176.258087
20.656947	211.772919	171.222687
20.709376	212.383270	169.143677
20.761805	215.454102	171.203613
20.814234	232.257843	170.192719
20.866662	231.151581	176.582336
20.919091	205.860138	163.230896
20.971520	215.148926	176.734924
21.023949	219.783783	161.495209
21.076378	208.148956	166.149139
21.128806	213.832855	174.026489
21.181235	218.296051	168.762207
21.233664	196.723938	159.263611
21.286093	246.829987	181.083679
21.338522	218.372345	170.192719
21.390950	212.459564	172.100067
21.443379	217.094421	177.021027
21.495808	208.873749	162.830353
21.548237	209.579468	159.168243
21.600666	220.375061	169.963837
21.653094	211.620331	168.647766
21.705523	207.233429	177.326202
21.757952	223.770142	169.391632
21.810381	219.039917	170.898437
21.862810	218.067169	170.955658
21.915238	215.587616	166.683197
21.967667	217.723846	171.165466
22.020096	205.650330	166.835785
22.072525	214.576721	176.029205
22.124954	222.015381	173.301697
22.177382	213.947296	170.898437
22.229811	214.080811	170.669556
22.282240	211.353302	170.593262
22.334669	211.734772	175.189972
22.387098	202.274323	175.685883
22.439526	194.797516	162.677765
22.491955	212.593079	162.811279
22.544384	224.151611	179.748535
22.596813	213.031769	166.034698
22.649242	212.516785	164.337158
22.701670	212.821960	163.707733
22.754099	216.884613	188.560486
22.806528	222.301483	171.852112
22.858957	203.323364	166.797638
22.911386	218.620300	187.416077
22.963814	219.783783	178.890228
23.016243	214.881897	169.658661
23.068672	212.516785	172.023773
23.121101	197.944641	158.271790
23.173530	207.138062	174.465179
23.225958	219.154358	173.454285
23.278387	215.740204	167.331696
23.330816	210.723877	165.977478
23.383245	225.391388	175.247192
23.435674	215.129852	159.015656
23.488102	211.696625	178.966522
23.540531	208.644867	174.198151
23.592960	216.121674	173.492432
23.645389	212.039948	164.318085
23.697818	207.672119	165.615082
23.750246	208.435059	175.037384
23.802675	218.753815	173.912048
23.855104	209.827423	172.882080
23.907533	206.108093	177.059174
23.959962	213.413239	182.456970
24.012390	212.097168	166.969299
24.064819	206.527710	166.435242
24.117248	218.029022	184.631348
24.169677	210.742950	173.110962
24.222106	218.982697	172.824860
24.274534	212.745667	179.061890
24.326963	212.631226	171.356201
24.379392	209.045410	168.190002
24.431821	225.486755	166.110992
24.484250	220.508575	169.563293
24.536678	211.658478	169.334412
24.589107	214.023590	173.511505
24.641536	222.110748	172.767639
24.693965	216.789246	172.729492
24.746394	225.009918	169.353485
24.798822	206.623077	164.031982
24.851251	199.642181	168.933868
24.903680	228.099823	176.734924
24.956109	224.552155	177.116394
25.008538	210.094452	166.950226
25.060966	214.099884	171.756744
25.113395	228.137970	172.863007
25.165824	213.336945	181.484222
25.218253	219.993591	155.506134
25.270682	219.459534	175.476074
25.323110	205.001831	175.304413
25.375539	222.034454	169.181824
25.427968	223.655701	168.418884
25.480397	215.530396	173.683167
25.532826	208.301544	162.029266
25.585254	213.108063	176.467896
25.637683	214.557648	175.285339
25.690112	219.783783	169.410706
25.742541	221.405029	165.081024
25.794970	210.571289	174.865723
25.847398	207.519531	169.849396
25.899827	220.012665	161.819458
25.952256	205.764771	168.704987
26.004685	207.729340	168.247223
26.057114	209.426880	162.200928
26.109542	213.737488	177.803040
26.161971	219.097137	172.271729
26.214400	218.868256	172.138214
26.266829	206.108093	170.345306
26.319258	224.285126	172.920227
26.371686	209.503174	167.922974
26.424115	200.634003	171.108246
26.476544	208.854675	172.290802
26.528973	215.911865	170.631409
26.581402	218.486786	170.707703
26.633830	215.892792	165.538788
26.686259	199.069977	156.650543
26.738688	209.217072	169.601440
26.791117	216.617584	165.348053
26.843546	215.282440	171.852112
26.895974	206.794739	168.399811
26.948403	216.636658	166.473389
27.000832	213.775635	168.018341
27.053261	214.176178	165.824890
27.105690	211.639404	167.503357
27.158118	223.388672	176.906586
27.210547	200.538635	170.841217
27.262976	203.151703	171.012878
27.315405	219.554901	180.587769
27.367834	223.674774	175.361633
27.420262	214.920044	168.552399
27.472691	226.669312	171.566010
27.525120	207.252502	170.364380
27.577549	220.775604	177.326202
27.629978	222.206116	171.241760
27.682406	225.830078	172.424316
27.734835	221.843719	170.326233
27.787264	225.734711	173.053741
27.839693	227.699280	171.604156
27.892122	211.982727	168.342590
27.944550	217.208862	166.492462
27.996979	209.217072	162.067413
28.049408	216.693878	169.887543
28.101837	238.094330	177.059174
28.154266	213.413239	165.138245
28.206694	217.380524	166.511536
28.259123	229.606628	163.879395
28.311552	221.939087	170.478821
28.363981	210.285187	162.734985
28.416410	213.661194	169.010162
28.468838	218.811035	168.476105
28.521267	213.603973	168.399811
28.573696	198.974609	175.724030
28.626125	212.974548	158.615112
28.678554	211.448669	158.557892
28.730982	202.980042	176.372528
28.783411	209.121704	170.745850
28.835840	212.306976	161.399841
28.888269	208.549500	166.454315
28.940698	218.639374	169.563293
28.993126	206.394196	170.288086
29.045555	219.173431	173.797607
29.097984	209.865570	171.966553
29.150413	220.108032	172.958374
29.202842	215.206146	172.996521
29.255270	212.974548	168.991089
29.307699	213.298798	164.470673
29.360128	198.860168	170.097351
29.412557	219.078064	174.045563
29.464986	218.734741	175.971985
29.517414	223.503113	169.792175
29.569843	210.418701	162.963867
29.622272	211.868286	165.615082
29.674701	217.323303	166.091919
29.727130	208.797455	178.222656
29.779558	213.184357	178.394318
29.831987	202.693939	163.421631
29.884416	208.263397	166.130066
29.936845	206.413269	156.116486
29.989274	215.816498	163.516998
30.041702	211.391449	158.386230
30.094131	214.939117	169.658661
30.146560	205.402374	166.244507
30.198989	211.563110	161.552429
30.251418	211.925507	167.503357
30.303846	213.756561	174.636841
30.356275	205.402374	164.756775
30.408704	206.642151	165.748596
30.461133	216.846466	164.642334
30.513562	205.154419	168.056488
30.565990	206.947327	158.977509
30.618419	212.860107	169.525146
30.670848	206.336975	175.495148
30.723277	205.192566	169.181824
30.775706	220.546722	180.587769
30.828134	211.753845	164.451599
30.880563	215.129852	175.724030
30.932992	222.702026	174.312592
30.985421	197.486877	161.933899
31.037850	219.211578	170.879364
31.090278	216.922760	167.713165
31.142707	210.590363	166.511536
31.195136	211.486816	169.868469
31.247565	204.200745	156.478882
31.299994	199.756622	172.443390
31.352422	209.941864	167.808533
31.404851	206.031799	172.710419
31.457280	218.563080	166.702271
31.509709	223.140717	169.296265
31.562138	219.268799	173.645020
31.614566	214.805603	177.288055
31.666995	215.206146	162.277222
31.719424	215.549469	174.961090
31.771853	219.860077	165.634155
31.824282	216.999054	172.691345
31.876710	218.620300	170.135498
31.929139	206.451416	167.140961
31.981568	205.211639	165.843964
32.033997	199.661255	167.636871
32.086426	202.541351	160.369873
32.138854	196.933746	162.448883
32.191283	214.138031	174.655914
32.243712	224.609375	167.217255
32.296141	213.565826	175.857544
32.348570	215.644836	170.574188
32.400998	218.105316	174.694061
32.453427	215.244293	165.367126
32.505856	215.587616	170.307159
32.558285	195.541382	167.598724
32.610714	215.320587	172.920227
32.663142	209.407806	170.154572
32.715571	207.328796	173.110962
32.768000	209.655762	167.961121
32.820429	200.233459	153.865814
32.872858	224.113464	175.933838
32.925286	212.593079	166.664124
32.977715	206.680298	171.279907
33.030144	210.361481	160.541534
33.082573	219.039917	174.541473
33.135002	222.873688	181.198120
33.187430	202.865601	164.375305
33.239859	209.846497	152.893066
33.292288	221.767426	167.236328
33.344717	213.375092	164.260864
33.397146	215.854645	176.162720
33.449574	219.593048	169.067383
33.502003	199.756622	164.318085
33.554432	215.492249	163.421631
33.606861	210.342407	162.429810
33.659290	214.118958	164.909363
33.711718	212.421417	167.980194
33.764147	207.653046	170.040131
33.816576	228.252411	167.999268
33.869005	222.702026	173.854828
33.921434	221.290588	172.805786
33.973862	214.576721	163.593292
34.026291	222.110748	169.811249
34.078720	219.459534	163.478851
34.131149	212.020874	166.110992
34.183578	204.696655	160.846710
34.236006	225.944519	179.100037
34.288435	221.633911	165.443420
34.340864	212.669373	178.775787
34.393293	208.969116	178.966522
34.445722	216.121674	174.903870
34.498150	217.475891	166.053772
34.550579	225.772858	163.497925
34.603008	208.625793	160.560608
34.655437	217.304230	167.675018
34.707866	212.230682	169.582367
34.760294	207.500458	168.304443
34.812723	213.699341	170.803070
34.865152	206.241608	158.576965
34.917581	212.459564	171.375275
34.970010	204.563141	165.538788
35.022438	212.917328	160.675049
35.074867	225.887299	176.372528
35.127296	206.241608	160.236359
35.179725	219.993591	184.459686
35.232154	216.293335	168.075562
35.284582	225.429535	177.288055
35.337011	201.702118	155.391693
35.389440	215.816498	163.402557
35.441869	210.113525	161.113739
35.494298	214.309692	174.026489
35.546726	212.287903	172.824860
35.599155	223.121643	175.037384
35.651584	223.140717	174.999237
35.704013	210.189819	166.816711
35.756442	208.454132	169.906616
35.808870	214.252472	179.367065
35.861299	210.170746	165.290833
35.913728	207.557678	154.418945
35.966157	217.494965	159.301758
36.018586	216.007233	169.487000
36.071014	216.178894	163.345337
36.123443	215.015411	180.454254
36.175872	221.862793	174.236298
36.228301	225.448608	163.383484
36.280730	227.737427	169.105530
36.333158	211.372375	158.653259
36.385587	215.930939	167.636871
36.438016	208.454132	168.304443
36.490445	225.715637	170.803070
36.542874	195.598602	157.241821
36.595302	217.113495	170.116425
36.647731	204.772949	173.950195
36.700160	212.535858	163.841248
36.752589	201.511383	164.451599
36.805018	199.089050	161.094666
36.857446	217.494965	168.037415
36.909875	204.296112	170.726776
36.962304	219.593048	171.680450
37.014733	213.813782	162.334442
37.067162	212.802887	167.961121
37.119590	231.418610	174.770355
37.172019	205.879211	177.135468
37.224448	215.587616	173.206329
37.276877	205.020905	155.906677
37.329306	213.184357	162.181854
37.381734	215.225220	169.296265
37.434163	216.388702	173.587799
37.486592	198.307037	164.966583
37.539021	204.067230	169.506073
37.591450	209.712982	174.350739
37.643878	204.315186	172.328949
37.696307	220.336914	169.315338
37.748736	200.023651	168.628693
37.801165	203.819275	163.345337
37.853594	200.557709	159.034729
37.906022	212.745667	166.435242
37.958451	211.544037	168.933868
38.010880	210.361481	167.884827
38.063309	212.211609	163.745880
38.115738	200.176239	152.740479
38.168166	206.737518	162.754059
38.220595	211.734772	165.843964
38.273024	227.546692	174.694061
38.325453	204.048157	154.933929
38.377882	201.377869	170.040131
38.430310	210.380554	169.372559
38.482739	214.347839	155.105591
38.535168	217.456818	166.854858
38.587597	209.903717	159.854889
38.640026	212.554932	174.026489
38.692454	218.982697	174.446106
38.744883	208.320618	169.734955
38.797312	209.388733	167.846680
38.849741	223.121643	161.418915
38.902170	219.860077	169.754028
38.954598	221.652985	171.775818
39.007027	209.407806	165.920258
39.059456	197.086334	167.198181
39.111885	214.138031	174.903870
39.164314	208.034515	160.961151
39.216742	217.971802	176.715851
39.269171	211.009979	165.786743
39.321600	204.677582	164.890289
39.374029	207.843781	166.454315
39.426458	214.710236	164.279938
39.478886	219.497681	173.091888
39.531315	221.405029	165.805817
39.583744	208.454132	170.497894
39.636173	218.009949	160.293579
39.688602	211.296082	166.091919
39.741030	212.993622	167.903900
39.793459	209.293365	158.042908
39.845888	207.843781	165.233612
39.898317	211.143494	164.012909
39.950746	215.072632	177.154541
40.003174	207.443237	163.364410
40.055603	218.849182	178.871155
40.108032	207.138062	160.045624
40.160461	204.277039	167.694092
40.212890	194.473267	151.824951
40.265318	212.574005	172.901154
40.317747	215.644836	172.901154
40.370176	203.361511	166.645050
40.422605	209.007263	162.315369
40.475034	208.816528	168.075562
40.527462	223.274231	167.160034
40.579891	212.383270	163.402557
40.632320	209.350586	154.056549
40.684749	216.617584	161.991119
40.737178	216.827393	162.429810
40.789606	212.402344	173.931122
40.842035	213.756561	182.647705
40.894464	209.007263	171.184540
40.946893	199.985504	168.991089
40.999322	206.298828	159.702301
41.051750	215.377808	173.931122
41.104179	211.162567	163.154602
41.156608	214.977264	169.029236
41.209037	207.481384	165.882111
41.261466	206.470490	168.094635
41.313894	208.244324	147.857666
41.366323	215.206146	173.664093
41.418752	218.219757	174.388885
41.471181	205.039978	164.794922
41.523610	220.546722	168.552399
41.576038	206.851959	175.285339
41.628467	215.511322	165.596008
41.680896	218.906403	168.819427
41.733325	224.952698	171.222687
41.785754	227.069855	170.612335
41.838182	207.214355	168.647766
41.890611	204.296112	167.503357
41.943040	212.059021	157.432556
41.995469	203.781128	160.408020
42.047898	209.808350	164.356232
42.100326	215.568542	168.571472
42.152755	214.805603	160.446167
42.205184	206.890106	169.258118
42.257613	206.584930	158.081055
42.310042	201.568604	162.487030
42.362470	198.612213	167.675018
42.414899	215.568542	175.151825
42.467328	209.140778	162.239075
42.519757	202.159882	163.402557
42.572186	215.167999	162.906647
42.624614	218.830109	169.715881
42.677043	209.007263	162.944794
42.729472	227.584839	167.922974
42.781901	210.914612	174.255371
42.834330	211.849213	166.645050
42.886758	218.982697	169.124603
42.939187	217.552185	178.661346
42.991616	214.710236	165.538788
43.044045	220.050812	167.484283
43.096474	212.154388	167.579651
43.148902	224.170685	175.571442
43.201331	211.086273	164.833069
43.253760	216.007233	167.522430
43.306189	210.590363	168.380737
43.358618	223.274231	178.642273
43.411046	214.862823	161.914825
43.463475	215.644836	158.824921
43.515904	214.729309	174.179077
43.568333	210.418701	168.151855
43.620762	224.838257	178.222656
43.673190	213.813782	163.574219
43.725619	204.792023	175.495148
43.778048	208.282471	168.323517
43.830477	206.222534	165.538788
43.882906	218.963623	168.113708
43.935334	213.909149	178.432465
43.987763	192.832947	159.549713
44.040192	217.094421	174.522400
44.092621	216.693878	163.478851
44.145050	204.696655	165.557861
44.197478	219.917297	164.680481
44.249907	206.108093	161.933899
44.302336	220.355988	170.097351
44.354765	212.497711	172.176361
44.407194	206.222534	161.590576
44.459622	213.279724	168.552399
44.512051	220.336914	172.424316
44.564480	207.614899	163.631439
44.616909	198.574066	163.784027
44.669338	216.026306	163.841248
44.721766	202.732086	171.356201
44.774195	207.519531	163.860321
44.826624	214.385986	173.664093
44.879053	207.920074	167.903900
44.931482	197.048187	159.473419
44.983910	215.225220	167.160034
45.036339	202.674866	172.157288
45.088768	214.366913	171.489716
45.141197	220.508575	164.184570
45.193626	228.939056	170.383453
45.246054	208.435059	164.661407
45.298483	219.287872	162.696838
45.350912	211.696625	158.081055
45.403341	209.312439	176.963806
45.455770	217.437744	176.792145
45.508198	204.296112	173.931122
45.560627	224.571228	169.658661
45.613056	211.906433	159.244537
45.665485	219.364166	169.429779
45.717914	210.361481	166.378021
45.770342	223.484039	172.996521
45.822771	232.601166	161.399841
45.875200	216.178894	170.879364
45.927629	221.443176	163.269043
45.980058	220.108032	166.110992
46.032486	218.677521	174.636841
46.084915	210.571289	169.162750
46.137344	216.369629	164.890289
46.189773	205.955505	170.631409
46.242202	215.091705	165.939331
46.294630	203.208923	163.230896
46.347059	214.977264	168.266296
46.399488	206.127167	163.269043
46.451917	204.067230	169.067383
46.504346	228.462219	175.247192
46.556774	205.936432	161.037445
46.609203	207.920074	164.203644
46.661632	202.445984	168.037415
46.714061	211.353302	170.459747
46.766490	221.004486	170.001984
46.818918	221.271515	168.399811
46.871347	212.039948	164.527893
46.923776	215.511322	165.157318
46.976205	220.546722	168.037415
47.028634	212.936401	169.296265
47.081062	206.680298	167.655945
47.133491	212.955475	166.854858
47.185920	220.031738	169.467926
47.238349	213.718414	172.424316
47.290778	213.451385	170.917511
47.343206	218.086243	167.083740
47.395635	213.451385	167.827606
47.448064	207.252502	159.549713
47.500493	211.238861	165.729523
47.552922	212.974548	161.972046
47.605350	213.317871	167.217255
47.657779	206.069946	160.331726
47.710208	216.388702	168.704987
47.762637	212.192535	164.642334
47.815066	213.699341	164.852142
47.867494	207.424164	164.775848
47.919923	214.347839	163.745880
47.972352	208.206177	167.484283
48.024781	205.764771	164.794922
48.077210	210.132599	168.437958
48.129638	204.200745	175.971985
48.182067	209.655762	159.912109
48.234496	204.448700	165.882111
48.286925	210.418701	177.822113
48.339354	212.631226	173.187256
48.391782	210.094452	162.277222
48.444211	222.778320	178.928375
48.496640	203.514099	172.729492
48.549069	207.557678	171.241760
48.601498	208.911896	176.048279
48.653926	208.473206	159.435272
48.706355	219.249725	166.893005
48.758784	212.326050	163.936615
48.811213	209.732056	160.617828
48.863642	220.394135	161.914825
48.916070	208.339691	165.119171
48.968499	219.020844	169.544220
49.020928	214.748383	170.269012
49.073357	213.584900	171.928406
49.125786	216.178894	171.031952
49.178214	208.797455	169.010162
49.230643	211.849213	161.495209
49.283072	207.195282	172.615051
49.335501	229.167938	176.010132
49.387930	194.740295	156.040192
49.440358	209.407806	158.710480
49.492787	222.759247	164.260864
49.545216	205.535889	164.718628
49.597645	217.227936	160.732269
49.650074	213.546753	165.576935
49.702502	208.225250	173.759460
49.754931	216.503143	160.579681
49.807360	210.742950	171.794891
49.859789	205.173492	175.571442
49.912218	213.699341	179.328918
49.964646	194.835663	153.179169
50.017075	203.018188	166.301727
50.069504	203.323364	169.620514
50.121933	210.723877	163.307190
50.174362	219.783783	166.950226
50.226790	207.233429	156.383514
50.279219	210.247040	163.230896
50.331648	209.655762	162.086487
50.384077	208.168030	162.124634
50.436506	204.181671	169.315338
50.488934	213.661194	166.969299
50.541363	220.298767	172.443390
50.593792	206.279755	164.508820
50.646221	213.794708	173.130035
50.698650	199.356079	160.255432
50.751078	217.781067	167.827606
50.803507	208.473206	164.051056
50.855936	209.712982	169.544220
50.908365	223.388672	173.110962
50.960794	214.748383	164.318085
51.013222	210.494995	164.833069
51.065651	198.249817	160.102844
51.118080	199.909210	156.364441
51.170509	212.650299	169.773102
51.222938	204.353333	168.399811
51.275366	205.802917	172.157288
51.327795	207.023621	169.010162
51.380224	212.211609	167.274475
51.432653	211.467743	168.819427
51.485082	220.012665	167.007446
51.537510	208.225250	167.350769
51.589939	212.268829	167.579651
51.642368	218.467712	166.130066
51.694797	212.268829	169.410706
51.747226	204.029083	158.405304
51.799654	209.674835	169.849396
51.852083	217.933655	179.920197
51.904512	210.533142	163.230896
51.956941	211.124420	164.299011
52.009370	213.909149	166.740417
52.061798	204.734802	163.917542
52.114227	204.219818	162.868500
52.166656	206.336975	167.121887
52.219085	208.072662	161.724091
52.271514	220.260620	170.135498
52.323942	213.336945	176.582336
52.376371	204.315186	162.963867
52.428800	209.655762	162.620544
52.481229	203.247070	164.737701
52.533658	212.459564	168.170929
52.586086	217.075348	166.950226
52.638515	206.623077	159.320831
52.690944	212.192535	167.522430
52.743373	206.642151	171.413422
52.795802	219.440460	164.909363
52.848230	208.148956	161.952972
52.900659	224.018097	165.882111
52.953088	213.184357	162.696838
53.005517	206.489563	161.437988
53.057946	226.383209	175.800323
53.110374	202.884674	174.331665
53.162803	210.380554	163.631439
53.215232	219.116211	159.587860
53.267661	210.742950	156.459808
53.320090	206.775665	168.209076
53.372518	201.854706	158.767700
53.424947	205.307007	165.252686
53.477376	210.208893	169.239044
53.529805	205.230713	164.184570
53.582234	212.841034	157.299042
53.634662	203.399658	162.487030
53.687091	219.154358	173.187256
53.739520	206.356049	163.974762
53.791949	219.020844	174.865723
53.844378	215.625763	169.639587
53.896806	201.797485	171.375275
53.949235	212.898254	160.865784
54.001664	214.004517	172.176361
54.054093	200.748444	159.835815
54.106522	213.661194	166.358948
54.158950	213.222504	173.397064
54.211379	209.903717	159.740448
54.263808	206.680298	169.658661
54.316237	198.287964	163.440704
54.368666	221.328735	168.628693
54.421094	215.301514	168.628693
54.473523	205.554962	168.399811
54.525952	206.489563	166.072845
54.578381	216.960907	166.397095
54.630810	213.871002	170.001984
54.683238	201.702118	154.151917
54.735667	204.429626	162.410736
54.788096	217.399597	174.694061
54.840525	209.369659	165.271759
54.892954	207.653046	173.759460
54.945382	210.647583	164.527893
54.997811	196.723938	162.277222
55.050240	210.838318	166.702271
55.102669	216.903687	167.922974
55.155098	205.173492	150.814056
55.207526	220.088959	174.503326
55.259955	208.911896	159.397125
55.312384	201.091766	164.203644
55.364813	212.059021	165.653229
55.417242	212.478638	162.811279
55.469670	201.072693	159.206390
55.522099	208.873749	165.023804
55.574528	214.633942	175.285339
55.626957	209.388733	167.884827
55.679386	216.426849	162.715912
55.731814	216.255188	154.666901
55.784243	213.203430	167.198181
55.836672	208.644867	170.288086
55.889101	214.538574	171.775818
55.941530	203.838348	146.884918
55.993958	208.129883	167.751312
56.046387	201.072693	168.190002
56.098816	214.176178	166.969299
56.151245	226.058960	166.893005
56.203674	212.726593	164.489746
56.256102	223.312378	170.555115
56.308531	208.454132	168.170929
56.360960	215.644836	159.835815
56.413389	221.118927	172.729492
56.465818	207.042694	169.353485
56.518246	197.601318	167.846680
56.570675	210.876465	156.784058
56.623104	215.682983	170.536041
56.675533	200.862885	169.410706
56.727962	205.287933	168.762207
56.780390	209.407806	173.110962
56.832819	207.633972	170.135498
56.885248	198.116302	171.260834
56.937677	205.669403	164.794922
56.990106	201.435089	156.040192
57.042534	214.958191	166.034698
57.094963	216.236115	160.732269
57.147392	207.214355	162.124634
57.199821	205.783844	171.298981
57.252250	209.064484	161.647797
57.304678	200.252533	163.173676
57.357107	202.178955	163.593292
57.409536	201.377869	165.920258
57.461965	213.165283	171.813965
57.514394	218.372345	167.789459
57.566822	227.718353	168.285370
57.619251	211.715698	164.299011
57.671680	208.568573	169.658661
57.724109	226.593018	170.211792
57.776538	203.666687	163.097382
57.828966	206.394196	153.675079
57.881395	218.601227	167.388916
57.933824	213.737488	165.977478
57.986253	201.702118	167.636871
58.038682	216.102600	167.865753
58.091110	214.653015	170.574188
58.143539	216.636658	169.906616
58.195968	209.236145	157.775879
58.248397	213.871002	171.241760
58.300826	216.312408	160.827637
58.353254	203.437805	165.309906
58.405683	227.222443	170.154572
58.458112	206.012726	171.356201
58.510541	210.666656	166.072845
58.562970	204.715729	173.664093
58.615398	213.489532	172.023773
58.667827	197.830200	170.326233
58.720256	203.666687	150.585175
58.772685	204.486847	164.165497
58.825114	200.309753	167.503357
58.877542	209.312439	165.100098
58.929971	205.135345	171.642303
58.982400	212.993622	168.170929
59.034829	227.794647	178.127289
59.087258	210.762024	170.707703
59.139686	213.203430	159.187317
59.192115	212.535858	170.936584
59.244544	210.170746	174.827576
59.296973	195.198059	172.309875
59.349402	211.982727	163.707733
59.401830	215.053558	169.410706
59.454259	210.208893	170.097351
59.506688	209.140778	161.781311
59.559117	213.851929	174.064636
59.611546	210.895538	163.574219
59.663974	207.729340	173.645020
59.716403	215.091705	173.778534
59.768832	186.080933	155.735016
59.821261	217.590332	165.424347
59.873690	198.307037	154.209137
59.926118	221.939087	166.473389
59.978547	212.783813	167.560577
60.030976	210.418701	165.081024
60.083405	200.252533	164.184570
60.135834	206.508636	168.209076
60.188262	202.808380	167.617798
60.240691	228.214264	165.996552
60.293120	204.715729	166.339874
60.345549	207.252502	172.939301
60.397978	209.999084	174.388885
60.450406	223.731995	160.617828
60.502835	211.105347	167.407990
60.555264	228.633881	175.437927
60.607693	208.358765	161.933899
60.660122	204.086304	158.157349
60.712550	209.026337	171.928406
60.764979	214.729309	169.219971
60.817408	211.029053	172.939301
60.869837	218.467712	174.751282
60.922266	200.271606	162.162781
60.974694	217.990875	163.860321
61.027123	198.707581	162.544250
61.079552	204.391479	168.457031
61.131981	219.783783	167.846680
61.184410	204.296112	160.675049
61.236838	209.846497	166.797638
61.289267	215.835571	166.759491
61.341696	209.388733	167.675018
61.394125	217.494965	163.516998
61.446554	205.345154	166.435242
61.498982	202.236176	171.661377
61.551411	209.007263	179.328918
61.603840	205.364227	169.734955
61.656269	191.955566	163.669586
61.708698	205.230713	176.124573
61.761126	218.639374	176.506042
61.813555	211.524963	174.808502
61.865984	212.059021	167.655945
61.918413	207.881927	159.702301
61.970842	205.802917	164.508820
62.023270	206.050873	160.560608
62.075699	204.315186	164.680481
62.128128	209.217072	169.639587
62.180557	217.247009	165.195465
62.232986	211.029053	163.040161
62.285414	210.494995	161.628723
62.337843	213.890076	163.516998
62.390272	214.309692	158.576965
62.442701	209.465027	155.620575
62.495130	207.481384	176.525116
62.547558	219.535828	166.053772
62.599987	218.029022	180.530548
62.652416	213.890076	168.190002
62.704845	217.418671	171.699524
62.757274	214.138031	164.890289
62.809702	208.587646	169.467926
62.862131	212.631226	171.813965
62.914560	209.674835	164.508820
62.966989	208.396912	170.001984
63.019418	202.827454	169.525146
63.071846	217.056274	171.527863
63.124275	224.571228	177.783966
63.176704	229.797363	170.402527
63.229133	207.996368	166.778564
63.281562	208.396912	165.176392
63.333990	202.674866	164.985657
63.386419	216.331482	161.132812
63.438848	213.298798	161.876678
63.491277	205.917358	169.086456
63.543706	217.933655	179.061890
63.596134	200.004578	159.683228
63.648563	210.075378	171.203613
63.700992	211.944580	165.328979
63.753421	214.900970	165.672302
63.805850	211.696625	172.405243
63.858278	215.644836	163.326263
63.910707	209.445953	169.906616
63.963136	222.129822	159.683228
64.015565	210.895538	167.522430
64.067994	200.634003	165.653229
64.120422	215.454102	170.650482
64.172851	210.227966	168.151855
64.225280	213.260651	152.683258
64.277709	215.263367	159.645081
64.330138	200.271606	153.732300
64.382566	216.197968	166.168213
64.434995	205.287933	170.173645
64.487424	219.745636	165.691376
64.539853	213.165283	171.051025
64.592282	206.756592	155.754089
64.644710	206.012726	167.846680
64.697139	212.440491	167.751312
64.749568	210.838318	163.154602
64.801997	206.909180	159.378052
64.854426	212.211609	157.928467
64.906854	220.279694	173.454285
64.959283	204.639435	157.279968
65.011712	220.127106	175.495148
65.064141	198.001862	172.576904
65.116570	220.775604	172.748566
65.168998	212.764740	164.051056
65.221427	211.715698	167.102814
65.273856	202.407837	156.993866
65.326285	210.628510	162.487030
65.378714	223.789215	168.228149
65.431142	212.268829	166.263580
65.483571	221.328735	167.522430
65.536000	204.925537	161.476135
65.588429	212.650299	165.119171
65.640858	208.282471	163.841248
65.693286	216.121674	172.691345
65.745715	206.184387	175.247192
65.798144	211.009979	166.301727
65.850573	214.805603	159.778595
65.903002	228.290558	174.217224
65.955430	214.271545	168.170929
66.007859	224.380493	168.266296
66.060288	212.535858	162.372589
66.112717	205.154419	165.004730
66.165146	208.454132	161.132812
66.217574	213.813782	167.121887
66.270003	225.753784	167.732239
66.322432	212.631226	180.511475
66.374861	211.772919	175.685883
66.427290	216.331482	164.585114
66.479718	203.876495	168.247223
66.532147	212.078094	160.923004
66.584576	219.764709	180.358887
66.637005	211.791992	160.217285
66.689434	213.718414	160.350800
66.741862	214.614868	173.015594
66.794291	220.222473	167.808533
66.846720	220.184326	175.209045
66.899149	211.009979	162.658691
66.951578	210.762024	150.604248
67.004006	204.257965	172.882080
67.056435	203.266144	161.952972
67.108864	202.541351	153.999329
67.161293	202.999115	169.887543
67.213722	206.813812	159.873962
67.266150	205.631256	167.312622
67.318579	202.255249	163.879395
67.371008	225.830078	165.920258
67.423437	225.009918	158.729553
67.475866	208.034515	158.519745
67.528294	226.058960	166.549683
67.580723	222.663879	176.391602
67.633152	209.846497	170.402527
67.685581	209.388733	166.378021
67.738010	211.715698	157.337189
67.790438	210.342407	153.770447
67.842867	207.443237	167.331696
67.895296	207.366943	163.612366
67.947725	221.614838	164.794922
68.000154	193.729401	166.225433
68.052582	203.609467	168.247223
68.105011	214.958191	170.383453
68.157440	198.554993	164.985657
68.209869	220.375061	171.890259
68.262298	210.971832	170.040131
68.314726	213.718414	163.631439
68.367155	201.587677	164.566040
68.419584	200.176239	162.162781
68.472013	223.979950	164.108276
68.524442	207.405090	163.002014
68.576870	198.726654	168.056488
68.629299	217.132568	172.576904
68.681728	210.018158	169.715881
68.734157	203.304291	171.318054
68.786586	208.015442	163.326263
68.839014	198.478699	157.184601
68.891443	210.952759	163.745880
68.943872	212.078094	164.470673
68.996301	207.290649	157.947540
69.048730	206.985474	161.724091
69.101158	211.162567	157.833099
69.153587	203.723907	163.803101
69.206016	205.345154	157.375336
69.258445	212.039948	175.724030
69.310874	211.753845	168.437958
69.363302	207.023621	178.298950
69.415731	218.296051	175.323486
69.468160	207.576752	158.863068
69.520589	210.361481	161.914825
69.573018	202.178955	174.369812
69.625446	212.955475	169.200897
69.677875	200.271606	157.718658
69.730304	196.113586	155.105591
69.782733	201.644897	164.146423
69.835162	211.467743	167.255402
69.887590	219.497681	171.852112
69.940019	196.266174	158.271790
69.992448	197.677612	157.032013
70.044877	212.764740	161.437988
70.097306	200.500488	159.969330
70.149734	207.061768	168.380737
70.202163	206.394196	164.566040
70.254592	200.347900	155.982971
70.307021	210.208893	175.571442
70.359450	207.290649	163.478851
70.411878	221.118927	172.405243
70.464307	221.614838	177.898407
70.516736	198.764801	166.244507
70.569165	201.873779	166.893005
70.621594	207.080841	168.113708
70.674022	204.696655	156.135559
70.726451	224.552155	178.165436
70.778880	217.552185	169.792175
70.831309	195.236206	159.530640
70.883738	198.841095	162.734985
70.936166	190.887451	162.010193
70.988595	202.407837	161.647797
71.041024	205.345154	164.222717
71.093453	211.257935	168.285370
71.145882	207.500458	166.225433
71.198310	206.451416	166.721344
71.250739	197.620392	168.552399
71.303168	208.778381	175.819397
71.355597	217.723846	157.260895
71.408026	217.666626	159.587860
71.460454	215.511322	174.865723
71.512883	208.168030	163.993835
71.565312	219.764709	172.481537
71.617741	206.947327	158.100128
71.670170	216.979980	164.642334
71.722598	213.661194	163.345337
71.775027	218.505859	158.462524
71.827456	196.685791	157.737732
71.879885	207.405090	161.170959
71.932314	208.015442	164.585114
71.984742	207.710266	164.012909
72.037171	207.748413	165.786743
72.089600	199.394226	156.440735
72.142029	232.524872	166.778564
72.194458	226.116180	170.898437
72.246886	209.026337	165.367126
72.299315	206.222534	163.383484
72.351744	208.415985	161.838531
72.404173	218.467712	171.470642
72.456602	208.377838	167.560577
72.509030	212.593079	182.113647
72.561459	205.860138	169.525146
72.613888	195.465088	167.713165
72.666317	212.783813	167.655945
72.718746	196.952820	160.655975
72.771174	206.432343	156.917572
72.823603	214.843750	163.497925
72.876032	211.906433	163.345337
72.928461	205.173492	158.863068
72.980890	205.287933	173.797607
73.033318	210.838318	163.879395
73.085747	204.410553	158.901215
73.138176	215.873718	161.685944
73.190605	201.072693	162.200928
73.243034	200.195312	161.991119
73.295462	202.484131	164.184570
73.347891	211.467743	160.999298
73.400320	202.636719	157.089233
73.452749	212.173462	163.173676
73.505178	206.184387	169.868469
73.557606	211.963654	175.800323
73.610035	195.884705	163.135529
73.662464	218.982697	171.928406
73.714893	211.563110	168.991089
73.767322	185.832977	157.680511
73.819750	217.094421	166.664124
73.872179	212.306976	165.996552
73.924608	202.064514	161.476135
73.977037	217.208862	171.985626
74.029466	203.437805	165.309906
74.081894	206.298828	161.895752
74.134323	211.467743	168.609619
74.186752	204.429626	155.754089
74.239181	204.696655	161.132812
74.291610	216.197968	161.743164
74.344038	222.854614	177.021027
74.396467	225.524902	169.563293
74.448896	207.328796	165.252686
74.501325	200.920105	164.661407
74.553754	204.849243	167.045593
74.606182	214.252472	157.852173
74.658611	211.334229	169.773102
74.711040	200.881958	160.655975
74.763469	217.933655	167.999268
74.815898	209.312439	161.666870
74.868326	214.614868	166.244507
74.920755	209.274292	163.345337
74.973184	216.693878	169.277191
75.025613	214.405060	157.451630
75.078042	215.415955	174.121857
75.130470	217.151642	168.666840
75.182899	197.811127	171.146393
75.235328	222.587585	165.309906
75.287757	211.887360	170.898437
75.340186	207.824707	161.056519
75.392614	219.287872	176.143646
75.445043	214.805603	168.762207
75.497472	206.890106	158.767700
75.549901	201.168060	168.514252
75.602330	226.554871	173.110962
75.654758	208.873749	160.541534
75.707187	224.132538	165.386200
75.759616	218.086243	170.326233
75.812045	215.911865	168.609619
75.864474	212.173462	164.451599
75.916902	211.505890	160.198212
75.969331	208.873749	162.410736
76.021760	204.010010	169.925690
76.074189	209.064484	179.004669
76.126618	202.045441	172.252655
76.179046	215.187073	169.906616
76.231475	205.707550	158.729553
76.283904	212.211609	167.675018
76.336333	213.108063	171.508789
76.388762	218.124390	169.963837
76.441190	206.012726	158.805847
76.493619	198.421478	157.794952
76.546048	209.903717	165.653229
76.598477	219.268799	167.312622
76.650906	206.050873	160.484314
76.703334	213.203430	165.328979
76.755763	209.293365	163.421631
76.808192	196.113586	162.391663
76.860621	207.824707	171.108246
76.913050	204.334259	164.260864
76.965478	221.195221	172.214508
77.017907	219.020844	170.040131
77.070336	206.813812	170.803070
77.122765	215.549469	168.437958
77.175194	205.020905	166.473389
77.227622	201.206207	162.391663
77.280051	215.816498	164.699554
77.332480	213.184357	162.563324
77.384909	214.405060	168.914795
77.437338	218.563080	170.650482
77.489766	204.486847	167.236328
77.542195	204.887390	161.743164
77.594624	200.004578	167.579651
77.647053	210.247040	164.890289
77.699482	222.949982	156.631470
77.751910	207.309723	175.380707
77.804339	213.565826	167.026520
77.856768	212.574005	171.871185
77.909197	212.421417	173.969269
77.961626	207.843781	156.803131
78.014054	217.552185	160.484314
78.066483	208.168030	171.775818
78.118912	210.533142	158.252716
78.171341	207.901001	163.612366
78.223770	229.129791	174.961090
78.276198	202.465057	162.620544
78.328627	210.399628	159.301758
78.381056	201.358795	153.369904
78.433485	203.132629	159.206390
78.485914	219.707489	163.917542
78.538342	212.287903	157.012939
78.590771	206.127167	163.764954
78.643200	194.187164	167.121887
78.695629	208.606720	167.732239
78.748058	202.865601	158.100128
78.800486	198.173523	162.792206
78.852915	205.860138	165.195465
78.905344	210.628510	170.860291
78.957773	199.165344	162.563324
79.010202	209.255219	169.677734
79.062630	191.040039	155.925751
79.115059	206.947327	170.478821
79.167488	204.143524	162.906647
79.219917	215.759277	163.822174
79.272346	213.642120	171.566010
79.324774	204.772949	169.334412
79.377203	211.200714	162.696838
79.429632	203.952789	164.699554
79.482061	211.486816	158.863068
79.534490	209.827423	173.187256
79.586918	204.792023	169.887543
79.639347	199.165344	170.631409
79.691776	207.633972	160.713196
79.744205	202.426910	163.650513
79.796634	229.225159	168.895721
79.849062	208.244324	165.996552
79.901491	208.358765	168.724060
79.953920	216.789246	156.574249
80.006349	214.004517	169.982910
80.058778	205.192566	161.323547
80.111206	212.993622	172.576904
80.163635	221.652985	171.184540
80.216064	209.827423	164.642334
80.268493	217.266083	165.996552
80.320922	216.331482	167.636871
80.373350	208.263397	164.318085
80.425779	207.214355	170.650482
80.478208	205.345154	155.830383
80.530637	210.571289	158.958435
80.583066	210.227966	157.165527
80.635494	205.707550	171.833038
80.687923	214.653015	166.587830
80.740352	220.279694	171.890259
80.792781	212.993622	169.029236
80.845210	210.876465	165.119171
80.897638	204.982758	156.936646
80.950067	208.187103	169.143677
81.002496	216.693878	175.399780
81.054925	195.102692	158.538818
81.107354	208.702087	161.323547
81.159782	202.503204	168.552399
81.212211	212.306976	171.527863
81.264640	215.702057	174.179077
81.317069	198.631287	158.824921
81.369498	205.039978	164.299011
81.421926	221.118927	174.160004
81.474355	194.988251	173.130035
81.526784	195.579529	157.966614
81.579213	222.740173	161.075592
81.631642	207.786560	163.764954
81.684070	212.459564	174.980164
81.736499	210.342407	165.233612
81.788928	226.840973	180.530548
81.841357	217.800140	160.560608
81.893786	209.503174	167.388916
81.946214	207.443237	165.271759
81.998643	214.233398	160.274506
82.051072	211.467743	165.481567
82.103501	198.650360	163.288116
82.155930	217.285156	169.773102
82.208358	209.350586	165.405273
82.260787	217.227936	177.078247
82.313216	213.642120	170.078278
82.365645	210.075378	167.636871
82.418074	219.001770	163.097382
82.470502	212.650299	163.726807
82.522931	212.688446	177.116394
82.575360	189.113617	164.756775
82.627789	208.454132	163.383484
82.680218	203.075409	154.571533
82.732646	213.985443	159.568787
82.785075	219.726562	159.435272
82.837504	210.018158	165.328979
82.889933	211.334229	169.601440
82.942362	211.200714	171.966553
82.994790	209.846497	166.378021
83.047219	226.383209	167.255402
83.099648	197.963715	172.977448
83.152077	206.680298	163.516998
83.204506	226.249695	181.159973
83.256934	209.178925	160.312653
83.309363	217.266083	170.364380
83.361792	215.663910	167.007446
83.414221	219.402313	165.977478
83.466650	211.391449	163.898468
83.519078	205.802917	157.661438
83.571507	211.086273	158.138275
83.623936	209.064484	162.620544
83.676365	213.336945	169.296265
83.728794	220.088959	166.931152
83.781222	213.947296	169.792175
83.833651	208.683014	164.012909
83.886080	212.020874	164.680481
83.938509	221.157074	163.593292
83.990938	220.279694	163.993835
84.043366	210.666656	170.230865
84.095795	216.197968	160.808563
84.148224	214.786530	158.481598
84.200653	206.375122	163.555145
84.253082	209.484100	159.244537
84.305510	209.293365	160.217285
84.357939	216.159821	169.944763
84.410368	209.579468	170.154572
84.462797	206.451416	166.912079
84.515226	207.862854	170.764923
84.567654	212.821960	177.478790
84.620083	215.702057	173.168182
84.672512	206.661224	162.887573
84.724941	207.252502	171.165466
84.777370	213.546753	164.585114
84.829798	208.835602	167.045593
84.882227	205.497742	163.879395
84.934656	200.672150	165.081024
84.987085	207.462311	163.707733
85.039514	206.012726	163.936615
85.091942	217.399597	172.691345
85.144371	231.285095	169.734955
85.196800	207.538605	155.181885
85.249229	213.737488	176.963806
85.301658	212.936401	163.421631
85.354086	201.263428	166.187286
85.406515	204.696655	173.759460
85.458944	201.702118	168.418884
85.511373	199.604034	156.402588
85.563802	210.208893	165.576935
85.616230	208.606720	155.429840
85.668659	210.323334	158.500671
85.721088	215.682983	168.190002
85.773517	217.723846	165.348053
85.825946	202.426910	169.582367
85.878374	210.800171	164.375305
85.930803	199.356079	161.972046
85.983232	202.751160	157.604218
86.035661	214.328766	162.811279
86.088090	207.958221	167.808533
86.140518	215.091705	167.751312
86.192947	216.388702	164.356232
86.245376	206.260681	167.732239
86.297805	217.418671	172.271729
86.350234	197.772980	162.029266
86.402662	205.192566	153.331757
86.455091	202.751160	163.707733
86.507520	212.383270	165.519714
86.559949	210.819244	172.805786
86.612378	199.661255	160.770416
86.664806	213.375092	167.083740
86.717235	207.481384	163.249969
86.769664	211.544037	171.012878
86.822093	197.963715	166.816711
86.874522	203.151703	167.236328
86.926950	216.445923	164.299011
86.979379	207.633972	164.241791
87.031808	217.342377	166.397095
87.084237	212.268829	166.568756
87.136666	211.696625	162.963867
87.189094	209.426880	167.903900
87.241523	215.396881	185.127258
87.293952	212.326050	156.726837
87.346381	204.277039	167.560577
87.398810	210.876465	173.149109
87.451238	220.394135	165.596008
87.503667	210.056305	164.756775
87.556096	220.260620	167.255402
87.608525	206.451416	153.770447
87.660954	201.587677	158.977509
87.713382	216.674805	164.585114
87.765811	212.001801	162.639618
87.818240	215.606689	159.282684
87.870669	199.565887	163.078308
87.923098	206.298828	159.320831
87.975526	196.456909	156.669617
88.027955	200.576782	172.157288
88.080384	212.211609	167.121887
88.132813	208.797455	156.555176
88.185242	216.712952	164.699554
88.237670	219.955444	164.051056
88.290099	197.010040	164.451599
88.342528	210.304260	162.029266
88.394957	215.339661	170.879364
88.447386	206.527710	157.890320
88.499814	200.195312	160.083771
88.552243	214.443207	169.086456
88.604672	207.805634	165.061951
88.657101	208.129883	160.732269
88.709530	205.039978	168.190002
88.761958	211.391449	162.658691
88.814387	207.195282	170.173645
88.866816	213.394165	164.909363
88.919245	215.053558	160.293579
88.971674	214.996338	164.909363
89.024102	208.797455	165.519714
89.076531	207.214355	168.418884
89.128960	204.353333	161.457062
89.181389	212.364197	171.699524
89.233818	204.849243	163.288116
89.286246	205.669403	153.217316
89.338675	205.860138	163.192749
89.391104	217.933655	174.407959
89.443533	214.481354	164.947510
89.495962	213.661194	165.386200
89.548390	205.574036	164.413452
89.600819	215.587616	165.748596
89.653248	208.473206	167.579651
89.705677	208.015442	161.914825
89.758106	203.361511	169.277191
89.810534	208.053589	175.952911
89.862963	205.059052	165.748596
89.915392	203.170776	165.233612
89.967821	209.503174	169.620514
90.020250	219.287872	163.879395
90.072678	216.598511	166.072845
90.125107	212.917328	168.857574
90.177536	214.633942	175.056458
90.229965	198.345184	164.356232
90.282394	213.127136	163.955688
90.334822	216.178894	167.770386
90.387251	210.781097	162.925720
90.439680	196.647644	163.726807
90.492109	205.593109	156.154633
90.544538	207.424164	165.843964
90.596966	207.252502	163.879395
90.649395	210.590363	174.026489
90.701824	191.726685	166.358948
90.754253	205.039978	155.868530
90.806682	206.146240	164.070129
90.859110	207.557678	171.165466
90.911539	206.718445	164.489746
90.963968	199.546814	167.140961
91.016397	207.843781	162.563324
91.068826	216.445923	153.160095
91.121254	208.282471	169.086456
91.173683	209.102631	162.868500
91.226112	212.097168	167.503357
91.278541	202.522278	157.241821
91.330970	213.661194	159.969330
91.383398	207.996368	162.143707
91.435827	210.704803	162.677765
91.488256	214.691162	161.399841
91.540685	226.135254	164.508820
91.593114	208.110809	167.655945
91.645542	210.323334	164.871216
91.697971	208.892822	171.432495
91.750400	213.947296	165.081024
91.802829	209.941864	162.487030
91.855258	209.808350	170.841217
91.907686	211.105347	176.639557
91.960115	209.827423	160.007477
92.012544	216.560364	158.538818
92.064973	208.301544	162.067413
92.117402	217.838287	159.549713
92.169830	201.606750	161.933899
92.222259	214.347839	158.691406
92.274688	217.723846	173.950195
92.327117	201.568604	169.219971
92.379546	201.225281	163.364410
92.431974	218.048096	167.560577
92.484403	212.116241	163.269043
92.536832	220.394135	161.743164
92.589261	210.075378	170.803070
92.641690	203.342438	170.650482
92.694118	207.061768	165.519714
92.746547	193.729401	156.421661
92.798976	216.083527	169.162750
92.851405	227.413177	165.443420
92.903834	202.789307	171.928406
92.956262	212.135315	173.683167
93.008691	211.277008	163.764954
93.061120	216.808319	165.596008
93.113549	207.309723	163.421631
93.165978	208.053589	163.402557
93.218406	215.244293	179.176331
93.270835	210.342407	161.018372
93.323264	212.993622	170.097351
93.375693	207.862854	171.108246
93.428122	212.306976	165.157318
93.480550	209.712982	157.871246
93.532979	213.527679	176.181793
93.585408	212.917328	159.492493
93.637837	213.279724	178.012848
93.690266	214.576721	161.361694
93.742694	223.731995	165.634155
93.795123	201.778412	162.906647
93.847552	202.407837	172.691345
93.899981	206.947327	160.636902
93.952410	211.009979	159.053802
94.004838	213.012695	164.299011
94.057267	203.342438	167.827606
94.109696	199.928284	154.266357
94.162125	194.320679	151.557922
94.214554	209.484100	168.247223
94.266982	217.075348	175.991058
94.319411	206.012726	166.530609
94.371840	208.530426	173.282623
94.424269	226.726532	175.552368
94.476698	202.674866	168.819427
94.529126	202.426910	157.470703
94.581555	205.917358	159.339905
94.633984	205.307007	168.495178
94.686413	192.413330	157.318115
94.738842	199.737549	163.307190
94.791270	198.211670	172.424316
94.843699	219.135284	164.852142
94.896128	224.075317	170.440674
94.948557	213.584900	167.427063
95.000986	219.802856	170.707703
95.053414	213.966370	162.029266
95.105843	206.775665	170.574188
95.158272	213.298798	168.094635
95.210701	209.655762	180.740356
95.263130	202.636719	174.674988
95.315558	207.061768	170.631409
95.367987	209.426880	164.089203
95.420416	217.208862	165.042877
95.472845	206.127167	164.432526
95.525274	223.503113	168.228149
95.577702	200.214386	163.326263
95.630131	223.121643	178.642273
95.682560	217.742920	165.176392
95.734989	202.789307	167.541504
95.787418	215.091705	167.007446
95.839846	205.307007	158.596039
95.892275	208.988190	161.075592
95.944704	202.407837	164.775848
95.997133	202.865601	165.233612
96.049562	214.290619	172.500610
96.101990	194.339752	168.247223
96.154419	204.792023	162.887573
96.206848	223.026276	162.696838
96.259277	191.669464	164.089203
96.311706	198.497772	171.451569
96.364134	213.680267	164.375305
96.416563	201.625824	175.437927
96.468992	199.565887	174.922943
96.521421	205.268860	163.822174
96.573850	201.683044	168.819427
96.626278	203.895569	168.609619
96.678707	205.326080	165.157318
96.731136	211.772919	166.473389
96.783565	200.557709	162.296295
96.835994	216.884613	171.966553
96.888422	212.802887	161.190033
96.940851	205.764771	167.808533
96.993280	206.108093	177.249908
97.045709	200.023651	163.955688
97.098138	211.009979	167.083740
97.150566	223.503113	172.500610
97.202995	203.647614	156.612396
97.255424	205.078125	164.546967
97.307853	208.358765	160.465240
97.360282	206.375122	153.617859
97.412710	203.456879	161.094666
97.465139	218.944550	173.721313
97.517568	201.339722	162.792206
97.569997	215.625763	165.824890
97.622426	220.355988	164.947510
97.674854	210.533142	160.675049
97.727283	214.500427	162.544250
97.779712	220.355988	164.642334
97.832141	207.519531	167.560577
97.884570	215.969086	166.301727
97.936998	204.811096	156.135559
97.989427	227.108002	171.794891
98.041856	195.999146	160.312653
98.094285	211.658478	167.179108
98.146714	198.516846	162.372589
98.199142	201.148987	162.429810
98.251571	221.748352	174.808502
98.304000	221.538544	156.669617
98.356429	219.078064	172.538757
98.408858	213.413239	171.718597
98.461286	200.233459	167.121887
98.513715	203.075409	164.527893
98.566144	202.884674	172.328949
98.618573	207.633972	179.271698
98.671002	215.129852	161.647797
98.723430	208.129883	161.552429
98.775859	210.533142	168.838501
98.828288	205.211639	171.985626
98.880717	216.903687	165.672302
98.933146	195.903778	170.917511
98.985574	207.614899	155.448914
99.038003	215.740204	168.228149
99.090432	213.565826	162.982941
99.142861	219.993591	165.290833
99.195290	206.375122	169.811249
99.247718	216.083527	158.576965
99.300147	216.331482	166.282654
99.352576	210.609436	163.631439
99.405005	203.380585	164.108276
99.457434	212.478638	163.669586
99.509862	199.623108	160.999298
99.562291	200.252533	154.056549
99.614720	211.296082	175.304413
99.667149	207.729340	153.217316
99.719578	210.437775	164.642334
99.772006	196.380615	165.863037
99.824435	209.007263	162.811279
99.876864	203.628540	168.342590
99.929293	202.331543	158.405304
99.981722	203.952789	166.873932
100.034150	205.860138	164.203644
100.086579	208.129883	169.620514
100.139008	206.546783	169.715881
100.191437	199.356079	162.811279
100.243866	207.653046	179.443359
100.296294	213.222504	166.454315
100.348723	207.691193	162.982941
100.401152	213.336945	171.298981
100.453581	202.732086	159.854889
100.506010	200.366974	156.784058
100.558438	228.042603	166.835785
100.610867	205.154419	168.895721
100.663296	207.157135	163.459778
100.715725	210.094452	160.808563
100.768154	201.854706	154.857635
100.820582	203.590393	168.704987
100.873011	212.631226	167.007446
100.925440	204.792023	162.506104
100.977869	207.767487	166.110992
101.030298	215.206146	163.097382
101.082726	209.274292	171.127319
101.135155	199.718475	169.944763
101.187584	194.301605	156.307220
101.240013	203.914642	160.541534
101.292442	208.187103	166.778564
101.344870	210.933685	168.857574
101.397299	207.881927	159.645081
101.449728	210.437775	158.691406
101.502157	214.843750	165.214539
101.554586	205.497742	161.190033
101.607014	199.546814	161.018372
101.659443	221.576691	163.021088
101.711872	225.601196	160.369873
101.764301	202.274323	162.563324
101.816730	209.865570	163.822174
101.869158	195.808411	166.759491
101.921587	204.772949	171.546936
101.974016	205.268860	159.606934
102.026445	193.042755	158.042908
102.078874	212.192535	166.969299
102.131302	210.075378	168.342590
102.183731	214.977264	172.119141
102.236160	205.612183	166.206360
102.288589	202.980042	160.522461
102.341018	213.088989	160.942078
102.393446	216.484070	164.718628
102.445875	206.470490	160.007477
102.498304	221.786499	168.266296
102.550733	203.685760	160.541534
102.603162	206.184387	168.800354
102.655590	218.944550	167.083740
102.708019	209.960937	165.176392
102.760448	214.176178	173.473358
102.812877	210.990906	170.574188
102.865306	217.952728	167.903900
102.917734	212.593079	164.070129
102.970163	209.064484	169.124603
103.022592	210.227966	165.615082
103.075021	217.628479	166.435242
103.127450	212.345123	169.868469
103.179878	206.966400	157.489777
103.232307	206.298828	162.162781
103.284736	204.124451	166.568756
103.337165	199.108124	163.021088
103.389594	210.781097	162.868500
103.442022	201.168060	159.568787
103.494451	202.445984	162.162781
103.546880	213.413239	170.822144
103.599309	211.429596	166.301727
103.651738	205.421448	166.015625
103.704166	212.039948	169.715881
103.756595	204.277039	160.408020
103.809024	217.552185	168.418884
103.861453	203.323364	164.737701
103.913882	206.775665	165.214539
103.966310	213.146210	158.786774
104.018739	206.489563	165.348053
104.071168	199.756622	168.418884
104.123597	191.860199	161.056519
104.176026	203.285217	162.506104
104.228454	219.573975	168.933868
104.280883	202.999115	169.906616
104.333312	200.023651	165.443420
104.385741	213.394165	162.353516
104.438170	214.920044	169.715881
104.490598	207.767487	163.230896
104.543027	208.625793	164.508820
104.595456	210.723877	167.102814
104.647885	204.524994	163.688660
104.700314	209.197998	162.734985
104.752742	204.010010	165.271759
104.805171	202.541351	162.334442
104.857600	193.367004	154.533386
104.910029	205.574036	159.187317
104.962458	213.127136	174.484253
105.014886	198.802948	154.056549
105.067315	201.568604	169.696808
105.119744	209.255219	169.811249
105.172173	215.167999	166.988373
105.224602	212.516785	165.424347
105.277030	208.396912	165.634155
105.329459	194.969177	161.323547
105.381888	206.966400	172.061920
105.434317	215.225220	163.860321
105.486746	204.677582	158.424377
105.539174	193.252563	158.748627
105.591603	208.263397	165.100098
105.644032	206.623077	171.489716
105.696461	206.661224	155.887604
105.748890	207.500458	158.672333
105.801318	211.105347	172.195435
105.853747	208.816528	156.936646
105.906176	208.492279	163.059235
105.958605	205.554962	169.906616
106.011034	210.094452	165.081024
106.063462	226.840973	171.394348
106.115891	213.661194	168.514252
106.168320	203.170776	159.225464
106.220749	208.244324	164.909363
106.273178	204.830170	154.018402
106.325606	206.489563	168.151855
106.378035	207.901001	158.157349
106.430464	195.751190	155.677795
106.482893	201.873779	165.596008
106.535322	216.312408	170.688629
106.587750	205.039978	177.307129
106.640179	210.056305	160.255432
106.692608	210.170746	174.980164
106.745037	206.165314	165.309906
106.797466	199.451447	165.176392
106.849894	207.405090	170.249939
106.902323	214.157104	160.923004
106.954752	224.952698	164.489746
107.007181	210.704803	169.143677
107.059610	205.497742	156.612396
107.112038	202.045441	167.770386
107.164467	203.304291	161.342621
107.216896	201.587677	155.982971
107.269325	200.386047	171.890259
107.321754	207.939148	158.138275
107.374182	205.478668	164.699554
107.426611	213.565826	165.290833
107.479040	208.854675	158.576965
107.531469	212.459564	157.966614
107.583898	222.988129	173.511505
107.636326	212.287903	171.279907
107.688755	206.108093	164.642334
107.741184	201.606750	157.623291
107.793613	213.222504	158.252716
107.846042	207.710266	166.492462
107.898470	213.737488	165.481567
107.950899	205.898285	168.399811
108.003328	213.661194	158.481598
108.055757	212.574005	165.100098
108.108186	215.950012	159.587860
108.160614	198.669434	175.552368
108.213043	217.781067	173.473358
108.265472	203.628540	156.383514
108.317901	218.963623	174.903870
108.370330	200.252533	165.214539
108.422758	206.336975	166.683197
108.475187	208.187103	156.574249
108.527616	210.914612	171.890259
108.580045	205.879211	154.953003
108.632474	205.669403	160.522461
108.684902	210.056305	173.187256
108.737331	203.151703	173.950195
108.789760	201.549530	164.966583
108.842189	211.639404	166.206360
108.894618	206.146240	172.348022
108.947046	212.440491	168.361664
108.999475	210.037231	158.023834
109.051904	212.955475	164.604187
109.104333	198.059082	163.784027
109.156762	198.574066	158.500671
109.209190	214.576721	164.890289
109.261619	214.862823	168.037415
109.314048	213.775635	165.824890
109.366477	214.881897	161.972046
109.418906	210.170746	168.724060
109.471334	215.740204	160.961151
109.523763	221.729279	165.615082
109.576192	204.849243	162.258148
109.628621	209.255219	152.969360
109.681050	205.726624	177.383423
109.733478	218.601227	168.781281
109.785907	210.132599	162.601471
109.838336	210.475922	157.833099
109.890765	210.857391	172.920227
109.943194	218.753815	169.353485
109.995622	207.061768	159.835815
110.048051	206.947327	166.740417
110.100480	211.467743	175.552368
110.152909	205.039978	163.040161
110.205338	201.129913	170.345306
110.257766	217.456818	170.974731
110.310195	209.312439	162.849426
110.362624	221.748352	168.209076
110.415053	205.307007	160.484314
110.467482	214.252472	160.083771
110.519910	205.230713	172.138214
110.572339	214.939117	167.655945
110.624768	212.116241	163.402557
110.677197	226.936340	170.860291
110.729626	207.424164	174.694061
110.782054	202.274323	163.421631
110.834483	205.917358	167.522430
110.886912	208.225250	170.135498
110.939341	213.642120	172.615051
110.991770	205.421448	163.612366
111.044198	213.069916	166.568756
111.096627	218.276978	172.271729
111.149056	210.075378	164.661407
111.201485	209.655762	161.762238
111.253914	210.952759	167.160034
111.306342	203.609467	169.086456
111.358771	206.966400	164.260864
111.411200	207.004547	164.661407
111.463629	200.214386	161.342621
111.516058	202.960968	166.378021
111.568486	204.658508	171.966553
111.620915	199.928284	168.018341
111.673344	195.560455	163.879395
111.725773	218.334198	167.579651
111.778202	208.930969	166.187286
111.830630	218.982697	173.187256
111.883059	217.533112	168.724060
111.935488	208.816528	161.647797
111.987917	212.535858	166.339874
112.040346	223.178864	173.149109
112.092774	210.056305	166.091919
112.145203	211.315155	166.282654
112.197632	201.625824	170.707703
112.250061	223.407745	168.533325
112.302490	208.263397	165.786743
112.354918	205.516815	164.165497
112.407347	217.151642	173.835754
112.459776	198.059082	161.991119
112.512205	223.617554	168.933868
112.564634	201.320648	169.792175
112.617062	210.380554	166.091919
112.669491	204.181671	162.639618
112.721920	198.745728	159.683228
112.774349	202.941895	160.923004
112.826778	211.563110	171.222687
112.879206	204.257965	163.993835
112.931635	212.993622	170.860291
112.984064	195.693970	161.895752
113.036493	210.247040	161.876678
113.088922	203.037262	162.639618
113.141350	206.584930	159.950256
113.193779	204.582214	165.576935
113.246208	215.625763	170.497894
113.298637	205.554962	171.127319
113.351066	207.233429	160.942078
113.403494	209.236145	162.487030
113.455923	210.838318	160.579681
113.508352	212.326050	161.609650
113.560781	206.089020	169.830322
113.613210	207.157135	157.966614
113.665638	206.890106	164.852142
113.718067	217.876434	171.051025
113.770496	203.628540	166.740417
113.822925	201.873779	161.075592
113.875354	210.666656	160.140991
113.927782	206.718445	167.121887
113.980211	205.039978	166.702271
114.032640	187.911987	153.064728
114.085069	211.677551	174.160004
114.137498	215.950012	171.413422
114.189926	206.336975	161.151886
114.242355	218.486786	168.170929
114.294784	210.800171	175.209045
114.347213	211.563110	170.497894
114.399642	213.336945	172.348022
114.452070	209.331512	165.195465
114.504499	200.672150	158.996582
114.556928	194.702148	161.991119
114.609357	219.135284	162.639618
114.661786	203.914642	156.497955
114.714214	213.546753	169.849396
114.766643	210.990906	167.770386
114.819072	201.416016	164.566040
114.871501	205.669403	159.492493
114.923930	206.222534	163.173676
114.976358	210.132599	166.091919
115.028787	208.873749	158.824921
115.081216	198.669434	168.437958
115.133645	209.064484	158.596039
115.186074	221.996307	167.980194
115.238502	191.879272	160.694122
115.290931	211.524963	169.296265
115.343360	206.565857	167.407990
115.395789	207.462311	168.571472
115.448218	209.846497	163.402557
115.500646	222.244263	177.516937
115.553075	211.238861	160.160065
115.605504	207.862854	163.459778
115.657933	219.345093	160.465240
115.710362	204.467773	164.871216
115.762790	201.854706	158.481598
115.815219	211.486816	171.318054
115.867648	208.873749	167.198181
115.920077	212.402344	159.301758
115.972506	206.203461	167.846680
116.024934	214.271545	167.140961
116.077363	209.941864	164.051056
116.129792	208.740234	168.704987
116.182221	205.554962	164.012909
116.234650	205.554962	161.952972
116.287078	211.315155	162.754059
116.339507	198.822021	156.593323
116.391936	204.792023	165.710449
116.444365	212.974548	168.628693
116.496794	202.732086	158.061981
116.549222	233.116150	184.688568
116.601651	200.920105	163.478851
116.654080	207.977295	157.527924
116.706509	203.952789	166.759491
116.758938	209.331512	172.805786
116.811366	210.628510	171.127319
116.863795	198.726654	156.669617
116.916224	198.211670	162.239075
116.968653	224.208832	178.222656
117.021082	200.805664	167.541504
117.073510	205.326080	157.794952
117.125939	214.920044	160.484314
117.178368	202.178955	173.873901
117.230797	197.563171	158.157349
117.283226	217.838287	162.811279
117.335654	209.674835	166.740417
117.388083	199.375153	167.636871
117.440512	204.925537	169.982910
117.492941	203.819275	160.484314
117.545370	219.688416	169.467926
117.597798	224.418640	160.598755
117.650227	213.317871	168.037415
117.702656	221.405029	176.296234
117.755085	196.018219	168.323517
117.807514	223.236084	166.416168
117.859942	207.023621	165.500641
117.912371	210.666656	158.252716
117.964800	198.612213	166.740417
118.017229	213.127136	174.026489
118.069658	203.838348	170.326233
118.122086	208.835602	162.296295
118.174515	208.339691	165.748596
118.226944	214.138031	170.993805
118.279373	203.819275	156.688690
118.331802	217.819214	167.846680
118.384230	213.661194	157.642365
118.436659	207.195282	155.830383
118.489088	203.437805	154.705048
118.541517	205.841064	166.854858
118.593946	218.486786	167.922974
118.646374	206.031799	162.067413
118.698803	214.633942	170.288086
118.751232	210.227966	166.110992
118.803661	221.748352	172.042847
118.856090	195.884705	154.533386
118.908518	208.072662	164.966583
118.960947	216.274261	166.358948
119.013376	208.511353	161.724091
119.065805	201.320648	159.320831
119.118234	217.151642	169.467926
119.170662	211.410522	167.083740
119.223091	210.475922	168.895721
119.275520	215.053558	169.830322
119.327949	210.742950	163.593292
119.380378	203.781128	161.056519
119.432806	208.969116	166.797638
119.485235	205.783844	168.609619
119.537664	207.366943	167.903900
119.590093	208.854675	169.754028
119.642522	206.966400	164.489746
119.694950	212.020874	169.715881
119.747379	209.369659	166.110992
119.799808	213.127136	164.527893
119.852237	208.206177	166.187286
119.904666	202.140808	163.269043
119.957094	220.069885	164.833069
120.009523	203.056335	156.955719
120.061952	212.726593	172.729492
120.114381	206.928253	165.977478
120.166810	206.928253	157.356262
120.219238	210.895538	175.266266
120.271667	209.197998	164.871216
120.324096	218.887329	165.653229
120.376525	194.683075	162.105560
120.428954	206.470490	155.067444
120.481382	214.519501	173.149109
120.533811	205.097198	170.898437
120.586240	224.819183	168.418884
120.638669	221.824646	171.012878
120.691098	223.827362	166.301727
120.743526	213.871002	162.582397
120.795955	197.772980	166.530609
120.848384	214.462280	163.574219
120.900813	202.846527	165.309906
120.953242	206.069946	166.473389
121.005670	209.121704	174.045563
121.058099	226.306915	173.435211
121.110528	201.988220	157.318115
121.162957	218.009949	163.249969
121.215386	216.693878	168.781281
121.267814	213.375092	172.080994
121.320243	190.792084	160.293579
121.372672	200.290680	163.536072
121.425101	212.612152	171.012878
121.477530	214.672089	173.816681
121.529958	188.140869	164.051056
121.582387	211.944580	159.358978
121.634816	199.527740	170.841217
121.687245	219.688416	157.070160
121.739674	216.674805	167.388916
121.792102	200.958252	165.233612
121.844531	208.053589	174.884796
121.896960	210.437775	170.955658
121.949389	208.988190	159.473419
122.001818	211.162567	169.239044
122.054246	222.034454	163.993835
122.106675	210.628510	165.596008
122.159104	214.176178	167.484283
122.211533	201.511383	160.980225
122.263962	214.195251	170.478821
122.316390	194.740295	154.781342
122.368819	213.012695	164.203644
122.421248	211.544037	164.165497
122.473677	211.887360	169.792175
122.526106	213.813782	167.636871
122.578534	213.470459	162.010193
122.630963	213.165283	170.421600
122.683392	217.113495	173.645020
122.735821	199.909210	165.061951
122.788250	195.713043	152.111053
122.840678	209.655762	172.233582
122.893107	217.018127	182.037354
122.945536	205.364227	168.876648
122.997965	220.756531	162.715912
123.050394	197.525024	176.391602
123.102822	207.672119	167.465210
123.155251	216.884613	170.688629
123.207680	212.821960	171.985626
123.260109	204.620361	166.702271
123.312538	222.587585	179.748535
123.364966	205.116272	159.568787
123.417395	223.407745	160.255432
123.469824	205.287933	156.536102
123.522253	207.958221	169.601440
123.574682	221.672058	164.184570
123.627110	221.767426	162.563324
123.679539	214.366913	171.432495
123.731968	216.388702	165.996552
123.784397	218.124390	183.849335
123.836826	201.187134	164.546967
123.889254	211.601257	160.522461
123.941683	221.767426	163.764954
123.994112	216.579437	168.762207
124.046541	205.020905	165.596008
124.098970	210.819244	164.432526
124.151398	203.762054	161.075592
124.203827	207.977295	161.037445
124.256256	222.568512	173.301697
124.308685	217.685699	168.476105
124.361114	217.800140	163.650513
124.413542	209.255219	170.097351
124.465971	221.767426	163.631439
124.518400	218.925476	175.189972
124.570829	224.761963	162.105560
124.623258	229.377747	170.860291
124.675686	207.157135	164.375305
124.728115	220.890045	176.944733
124.780544	223.293304	175.590515
124.832973	217.971802	164.585114
124.885402	202.751160	162.696838
124.937830	208.930969	165.042877
124.990259	212.154388	165.653229
125.042688	208.892822	169.219971
125.095117	204.315186	156.459808
125.147546	222.377777	165.996552
125.199974	215.530396	157.489777
125.252403	208.206177	159.244537
125.304832	218.296051	152.683258
125.357261	200.634003	158.081055
125.409690	213.336945	165.462494
125.462118	213.127136	160.636902
125.514547	213.165283	169.658661
125.566976	199.928284	159.683228
125.619405	216.388702	161.628723
125.671834	216.102600	167.369843
125.724262	206.108093	163.726807
125.776691	208.034515	159.893036
125.829120	200.061798	162.467957
125.881549	200.920105	167.274475
125.933978	211.105347	174.503326
125.986406	208.263397	157.680511
126.038835	205.993652	165.348053
126.091264	215.778351	170.040131
126.143693	215.091705	172.443390
126.196122	202.579498	164.604187
126.248550	219.078064	170.307159
126.300979	204.143524	161.075592
126.353408	210.723877	164.833069
126.405837	212.726593	167.064667
126.458266	217.494965	176.525116
126.510694	204.658508	158.920288
126.563123	215.606689	159.969330
126.615552	215.969086	168.838501
126.667981	213.260651	171.852112
126.720410	212.821960	156.230927
126.772838	203.723907	164.184570
126.825267	212.688446	165.386200
126.877696	208.129883	164.451599
126.930125	198.612213	151.252747
126.982554	212.764740	161.762238
127.034982	206.756592	168.228149
127.087411	210.342407	177.154541
127.139840	216.655731	168.304443
127.192269	203.247070	160.560608
127.244698	206.127167	170.917511
127.297126	209.178925	166.511536
127.349555	223.655701	163.002014
127.401984	205.707550	162.849426
127.454413	211.181641	162.754059
127.506842	197.372437	171.718597
127.559270	207.786560	173.702240
127.611699	195.217133	167.407990
127.664128	202.312469	166.282654
127.716557	207.424164	161.094666
127.768986	208.415985	163.822174
127.821414	197.868347	153.083801
127.873843	199.451447	160.617828
127.926272	208.644867	161.323547
127.978701	210.418701	170.993805
128.031130	197.620392	166.168213
128.083558	216.426849	171.089172
128.135987	210.647583	163.002014
128.188416	202.369690	158.462524
128.240845	219.707489	175.609589
128.293274	215.587616	170.421600
128.345702	205.821991	173.873901
128.398131	195.903778	166.110992
128.450560	214.385986	164.279938
128.502989	215.225220	165.519714
128.555418	213.356018	170.803070
128.607846	213.775635	169.200897
128.660275	215.206146	161.666870
128.712704	208.091736	160.579681
128.765133	208.053589	158.824921
128.817562	203.418732	168.247223
128.869990	203.609467	165.195465
128.922419	204.753876	164.852142
128.974848	220.527649	168.781281
129.027277	201.282501	159.568787
129.079706	200.462341	159.320831
129.132134	208.225250	157.604218
129.184563	204.277039	174.083710
129.236992	210.895538	163.097382
129.289421	202.579498	158.100128
129.341850	224.094391	163.192749
129.394278	208.072662	173.625946
129.446707	200.634003	167.064667
129.499136	210.685730	165.424347
129.551565	212.688446	170.440674
129.603994	204.544067	158.252716
129.656422	225.315094	167.655945
129.708851	198.841095	172.271729
129.761280	199.756622	164.279938
129.813709	205.821991	162.792206
129.866138	208.377838	172.195435
129.918566	209.560394	167.369843
129.970995	203.933716	154.628754
130.023424	212.383270	170.040131
130.075853	215.511322	165.996552
130.128282	209.789276	171.279907
130.180710	199.966431	159.931183
130.233139	221.843719	175.571442
130.285568	216.217041	164.127350
130.337997	203.533173	161.609650
130.390426	201.587677	157.527924
130.442854	206.832886	164.184570
130.495283	216.026306	163.478851
130.547712	210.895538	172.653198
130.600141	209.388733	158.004761
130.652570	197.658539	158.653259
130.704998	212.478638	166.931152
130.757427	210.781097	171.813965
130.809856	216.503143	158.805847
130.862285	211.677551	166.492462
130.914714	217.361450	163.326263
130.967142	211.772919	165.271759
131.019571	198.059082	156.803131
131.072000	204.677582	159.549713
131.124429	218.906403	171.489716
131.176858	219.306946	180.931091
131.229286	218.582153	161.685944
131.281715	199.298859	156.326294
131.334144	222.129822	167.007446
131.386573	213.947296	161.533356
131.439002	222.034454	171.890259
131.491430	210.132599	160.560608
131.543859	216.197968	161.323547
131.596288	218.524933	166.454315
131.648717	204.086304	169.105530
131.701146	220.146179	161.991119
131.753574	217.895508	166.454315
131.806003	211.067200	160.827637
131.858432	204.792023	165.767670
131.910861	210.075378	163.211823
131.963290	196.113586	162.372589
132.015718	216.407776	166.797638
132.068147	207.481384	166.759491
132.120576	224.266052	169.754028
132.173005	213.756561	171.279907
132.225434	211.639404	174.140930
132.277862	209.121704	163.135529
132.330291	215.797424	168.056488
132.382720	214.271545	170.879364
132.435149	207.920074	165.138245
132.487578	216.903687	172.443390
132.540006	199.928284	152.664185
132.592435	216.274261	167.522430
132.644864	206.356049	164.146423
132.697293	214.633942	162.506104
132.749722	201.454163	166.873932
132.802150	218.429565	165.348053
132.854579	214.080811	179.195404
132.907008	201.225281	172.176361
132.959437	205.726624	174.617767
133.011866	208.950043	165.424347
133.064294	213.851929	160.388947
133.116723	201.625824	161.819458
133.169152	205.593109	164.318085
133.221581	213.203430	166.244507
133.274010	210.018158	170.650482
133.326438	203.399658	166.950226
133.378867	214.557648	169.391632
133.431296	201.644897	160.503387
133.483725	209.884644	163.879395
133.536154	198.097229	166.873932
133.588582	204.696655	167.846680
133.641011	209.217072	174.674988
133.693440	198.783875	160.064697
133.745869	211.811066	160.083771
133.798298	200.881958	170.383453
133.850726	205.154419	159.740448
133.903155	206.146240	175.151825
133.955584	206.508636	162.715912
134.008013	216.789246	172.882080
134.060442	202.465057	160.064697
134.112870	196.437836	162.830353
134.165299	213.184357	158.042908
134.217728	224.971771	169.277191
134.270157	208.606720	162.982941
134.322586	196.018219	161.037445
134.375014	204.315186	160.083771
134.427443	206.546783	176.925659
134.479872	208.473206	171.051025
134.532301	218.048096	164.546967
134.584730	203.475952	163.097382
134.637158	203.514099	159.626007
134.689587	202.579498	172.634125
134.742016	205.898285	164.833069
134.794445	221.862793	162.067413
134.846874	206.851959	173.263550
134.899302	202.426910	161.781311
134.951731	212.688446	178.642273
135.004160	188.827515	164.489746
135.056589	197.429657	159.168243
135.109018	212.802887	172.615051
135.161446	204.505920	165.328979
135.213875	221.233368	177.516937
135.266304	208.415985	162.048340
135.318733	205.860138	161.952972
135.371162	205.364227	164.375305
135.423590	201.530457	164.661407
135.476019	212.898254	175.170898
135.528448	206.527710	161.933899
135.580877	217.781067	171.222687
135.633306	208.034515	152.664185
135.685734	207.386017	160.045624
135.738163	202.159882	166.206360
135.790592	203.323364	163.288116
135.843021	212.154388	166.091919
135.895450	202.350616	162.696838
135.947878	209.712982	158.290863
136.000307	211.677551	170.898437
136.052736	208.225250	163.574219
136.105165	208.473206	162.506104
136.157594	214.862823	172.023773
136.210022	223.217010	172.977448
136.262451	204.010010	159.549713
136.314880	210.971832	164.070129
136.367309	219.173431	168.094635
136.419738	205.955505	159.072876
136.472166	207.271576	169.277191
136.524595	217.704773	166.702271
136.577024	214.557648	167.465210
136.629453	196.819305	162.048340
136.681882	212.898254	165.367126
136.734310	208.721161	169.677734
136.786739	210.552216	168.457031
136.839168	209.140778	163.059235
136.891597	203.266144	160.427094
136.944026	199.127197	168.399811
136.996454	212.230682	162.429810
137.048883	214.958191	166.931152
137.101312	214.595795	174.331665
137.153741	208.663940	172.023773
137.206170	202.865601	175.361633
137.258598	211.467743	161.666870
137.311027	205.249786	178.642273
137.363456	215.492249	165.729523
137.415885	203.781128	166.664124
137.468314	202.980042	158.996582
137.520742	195.655823	169.754028
137.573171	210.685730	164.279938
137.625600	210.094452	168.228149
137.678029	209.388733	168.800354
137.730458	202.045441	173.168182
137.782886	200.920105	153.236389
137.835315	202.312469	152.454376
137.887744	207.023621	154.705048
137.940173	194.110870	158.729553
137.992602	205.688477	156.841278
138.045030	219.001770	169.487000
138.097459	201.759338	159.816742
138.149888	209.426880	160.961151
138.202317	212.993622	163.173676
138.254746	199.108124	161.533356
138.307174	208.015442	171.623230
138.359603	204.238892	162.982941
138.412032	212.440491	161.571503
138.464461	200.157166	157.527924
138.516890	206.909180	157.470703
138.569318	197.372437	150.623322
138.621747	196.971893	151.901245
138.674176	215.950012	167.427063
138.726605	209.999084	166.587830
138.779034	205.898285	158.996582
138.831462	226.898193	167.369843
138.883891	206.680298	162.239075
138.936320	215.148926	158.023834
138.988749	202.426910	170.021057
139.041178	209.732056	166.969299
139.093606	216.236115	167.293549
139.146035	203.266144	166.244507
139.198464	203.933716	159.664154
139.250893	208.759308	167.789459
139.303322	207.290649	170.993805
139.355750	218.391418	160.331726
139.408179	210.838318	168.209076
139.460608	205.230713	157.928467
139.513037	206.375122	171.718597
139.565466	204.048157	171.222687
139.617894	201.129913	156.707764
139.670323	212.936401	161.857605
139.722752	205.917358	167.293549
139.775181	206.241608	146.694183
139.827610	208.473206	172.500610
139.880038	198.841095	168.895721
139.932467	204.563141	161.666870
139.984896	217.132568	171.527863
140.037325	202.598572	162.658691
140.089754	214.347839	177.383423
140.142182	204.734802	159.473419
140.194611	205.764771	166.740417
140.247040	205.535889	169.448853
140.299469	198.154449	171.470642
140.351898	200.347900	162.334442
140.404326	213.565826	168.952942
140.456755	203.609467	161.972046
140.509184	212.650299	162.181854
140.561613	211.811066	164.928436
140.614042	210.494995	164.051056
140.666470	213.356018	180.301666
140.718899	204.963684	164.165497
140.771328	204.868317	173.721313
140.823757	192.470551	165.119171
140.876186	222.110748	164.794922
140.928614	205.955505	162.563324
140.981043	205.268860	159.111023
141.033472	205.249786	158.119202
141.085901	201.625824	166.301727
141.138330	197.601318	160.427094
141.190758	215.988159	164.222717
141.243187	206.604004	155.925751
141.295616	205.726624	159.568787
141.348045	217.819214	165.023804
141.400474	202.941895	161.285400
141.452902	216.617584	173.778534
141.505331	202.121735	162.334442
141.557760	197.620392	162.792206
141.610189	218.524933	177.536011
141.662618	209.903717	170.326233
141.715046	214.900970	175.838470
141.767475	215.492249	162.162781
141.819904	213.413239	168.151855
141.872333	198.535919	168.666840
141.924762	208.225250	166.301727
141.977190	199.794769	164.279938
142.029619	197.334290	155.372620
142.082048	198.173523	160.560608
142.134477	212.650299	154.495239
142.186906	206.794739	168.437958
142.239334	205.898285	169.773102
142.291763	213.165283	173.568726
142.344192	213.069916	169.696808
142.396621	213.909149	158.271790
142.449050	221.672058	175.418854
142.501478	199.470520	170.974731
142.553907	195.484161	172.176361
142.606336	207.061768	170.078278
142.658765	211.944580	170.497894
142.711194	208.702087	169.353485
142.763622	199.832916	164.718628
142.816051	201.492310	155.239105
142.868480	207.595825	166.378021
142.920909	212.650299	161.056519
142.973338	202.827454	171.833038
143.025766	211.200714	164.985657
143.078195	205.554962	163.574219
143.130624	207.862854	159.015656
143.183053	211.086273	166.759491
143.235482	205.612183	167.446136
143.287910	214.004517	162.487030
143.340339	222.187042	175.819397
143.392768	207.118988	162.982941
143.445197	218.544006	175.170898
143.497626	218.830109	158.138275
143.550054	206.928253	161.380768
143.602483	210.170746	153.369904
143.654912	203.227997	163.078308
143.707341	201.053619	155.811310
143.759770	206.451416	157.146454
143.812198	209.007263	168.514252
143.864627	199.279785	156.688690
143.917056	224.285126	167.160034
143.969485	211.601257	167.121887
144.021914	207.328796	173.130035
144.074342	209.598541	167.808533
144.126771	212.478638	168.666840
144.179200	207.481384	166.244507
144.231629	224.742889	173.397064
144.284058	204.982758	170.879364
144.336486	203.952789	160.446167
144.388915	215.682983	166.778564
144.441344	205.249786	166.549683
144.493773	196.495056	163.688660
144.546202	204.505920	171.546936
144.598630	209.598541	164.833069
144.651059	214.633942	167.160034
144.703488	209.159851	166.606903
144.755917	201.873779	161.685944
144.808346	214.233398	175.933838
144.860774	199.909210	164.432526
144.913203	201.702118	166.587830
144.965632	199.718475	157.337189
145.018061	222.396851	165.901184
145.070490	205.326080	161.743164
145.122918	193.939209	157.661438
145.175347	199.146271	154.724121
145.227776	209.598541	167.484283
145.280205	201.301575	163.040161
145.332634	204.353333	169.677734
145.385062	225.276947	171.794891
145.437491	214.405060	157.051086
145.489920	196.800232	156.002045
145.542349	213.375092	173.397064
145.594778	206.623077	157.012939
145.647206	209.102631	157.165527
145.699635	210.819244	166.568756
145.752064	212.459564	174.961090
145.804493	200.729370	169.715881
145.856922	198.745728	149.765015
145.909350	222.167969	175.552368
145.961779	201.053619	167.179108
146.014208	205.669403	167.770386
146.066637	200.881958	159.168243
146.119066	201.206207	164.871216
146.171494	202.255249	161.933899
146.223923	210.113525	162.239075
146.276352	207.500458	163.383484
146.328781	205.802917	170.288086
146.381210	212.898254	173.416138
146.433638	196.666718	165.519714
146.486067	215.988159	166.778564
146.538496	198.593140	166.549683
146.590925	200.214386	170.860291
146.643354	214.481354	177.078247
146.695782	215.244293	163.116455
146.748211	217.571259	162.029266
146.800640	210.762024	165.691376
146.853069	204.792023	156.669617
146.905498	219.116211	167.808533
146.957926	207.614899	165.176392
147.010355	194.511414	168.304443
147.062784	214.958191	161.972046
147.115213	206.756592	161.800385
147.167642	219.478607	166.797638
147.220070	216.751099	167.236328
147.272499	212.078094	158.023834
147.324928	203.342438	166.740417
147.377357	212.135315	163.116455
147.429786	209.693909	169.353485
147.482214	218.982697	169.563293
147.534643	203.227997	161.685944
147.587072	202.674866	163.803101
147.639501	221.748352	166.072845
147.691930	197.200775	166.702271
147.744358	197.792053	161.685944
147.796787	205.516815	169.525146
147.849216	210.838318	167.655945
147.901645	212.287903	166.568756
147.954074	212.516785	162.296295
148.006502	211.715698	167.617798
148.058931	209.693909	167.045593
148.111360	206.069946	171.909332
148.163789	201.187134	162.658691
148.216218	218.925476	167.655945
148.268646	205.421448	168.514252
148.321075	204.887390	170.822144
148.373504	201.988220	163.497925
148.425933	205.478668	162.487030
148.478362	203.227997	164.222717
148.530790	205.974579	168.476105
148.583219	218.696594	164.299011
148.635648	216.045380	163.898468
148.688077	221.061707	166.549683
148.740506	197.601318	165.386200
148.792934	215.873718	169.162750
148.845363	200.843811	166.759491
148.897792	205.631256	171.833038
148.950221	203.304291	159.797668
149.002650	190.620422	168.075562
149.055078	208.473206	164.985657
149.107507	206.336975	161.647797
149.159936	206.489563	162.181854
149.212365	215.148926	160.942078
149.264794	211.505890	168.552399
149.317222	203.952789	159.587860
149.369651	211.658478	169.200897
149.422080	201.873779	154.266357
149.474509	214.309692	168.571472
149.526938	206.527710	160.808563
149.579366	204.582214	160.083771
149.631795	221.538544	174.961090
149.684224	207.366943	165.710449
149.736653	201.835632	167.694092
149.789082	202.007294	162.677765
149.841510	208.988190	168.590546
149.893939	204.219818	163.516998
149.946368	201.721191	163.211823
149.998797	211.811066	166.187286
150.051226	208.435059	164.165497
150.103654	213.069916	171.585083
150.156083	210.685730	161.571503
150.208512	198.593140	171.947479
150.260941	210.914612	165.176392
150.313370	215.530396	159.034729
150.365798	217.552185	167.388916
150.418227	203.571320	156.860352
150.470656	203.571320	156.707764
150.523085	204.010010	161.838531
150.575514	208.301544	167.675018
150.627942	213.298798	172.748566
150.680371	203.323364	160.999298
150.732800	207.538605	167.140961
150.785229	212.783813	166.740417
150.837658	207.614899	159.301758
150.890086	218.315125	168.876648
150.942515	205.230713	152.740479
150.994944	208.034515	164.604187
151.047373	213.718414	162.963867
151.099802	211.982727	163.841248
151.152230	217.590332	162.448883
151.204659	195.770264	165.214539
151.257088	204.925537	164.051056
151.309517	200.576782	152.854919
151.361946	191.822052	158.920288
151.414374	210.037231	168.685913
151.466803	220.546722	176.372528
151.519232	200.405121	161.914825
151.571661	208.892822	163.021088
151.624090	209.045410	153.980255
151.676518	214.710236	161.132812
151.728947	216.369629	167.636871
151.781376	196.952820	164.031982
151.833805	200.004578	155.868530
151.886234	206.394196	175.895691
151.938662	216.770172	179.309845
151.991091	211.200714	160.102844
152.043520	210.762024	171.871185
152.095949	217.475891	163.593292
152.148378	208.072662	169.563293
152.200806	206.527710	164.413452
152.253235	217.971802	184.459686
152.305664	207.214355	158.176422
152.358093	204.048157	163.497925
152.410522	200.538635	164.451599
152.462950	216.426849	169.925690
152.515379	214.023590	168.113708
152.567808	207.481384	162.601471
152.620237	216.808319	174.465179
152.672666	208.358765	158.233643
152.725094	206.298828	170.516968
152.777523	205.535889	167.369843
152.829952	207.614899	169.677734
152.882381	213.947296	164.718628
152.934810	220.451355	169.143677
152.987238	206.203461	166.568756
153.039667	212.917328	160.312653
153.092096	218.601227	177.898407
153.144525	204.296112	172.729492
153.196954	209.369659	169.696808
153.249382	198.974609	151.157379
153.301811	205.097198	170.326233
153.354240	212.230682	177.707672
153.406669	194.988251	168.399811
153.459098	203.838348	170.631409
153.511526	215.225220	166.702271
153.563955	193.271637	158.081055
153.616384	209.884644	173.053741
153.668813	210.227966	155.467987
153.721242	204.696655	169.639587
153.773670	203.571320	163.764954
153.826099	203.247070	165.309906
153.878528	203.571320	161.666870
153.930957	221.672058	175.266266
153.983386	211.257935	170.269012
154.035814	205.097198	165.290833
154.088243	208.110809	165.081024
154.140672	202.693939	165.557861
154.193101	192.337036	165.405273
154.245530	212.764740	179.862976
154.297958	210.800171	172.595978
154.350387	208.129883	159.816742
154.402816	221.900940	170.803070
154.455245	218.811035	166.873932
154.507674	211.200714	157.146454
154.560102	218.315125	157.051086
154.612531	203.762054	172.901154
154.664960	207.901001	174.942017
154.717389	207.767487	166.149139
154.769818	204.544067	162.925720
154.822246	193.881989	154.628754
154.874675	194.606781	158.596039
154.927104	194.606781	168.876648
154.979533	218.048096	161.800385
155.031962	211.544037	167.598724
155.084390	205.383301	162.906647
155.136819	219.173431	162.582397
155.189248	216.579437	159.435272
155.241677	200.977325	161.533356
155.294106	206.069946	165.576935
155.346534	202.579498	159.931183
155.398963	207.881927	168.228149
155.451392	208.683014	170.421600
155.503821	219.802856	170.745850
155.556250	212.097168	162.544250
155.608678	211.772919	156.764984
155.661107	208.663940	177.898407
155.713536	211.677551	156.822205
155.765965	207.138062	172.786713
155.818394	213.413239	162.792206
155.870822	206.680298	163.516998
155.923251	212.497711	163.192749
155.975680	216.064453	163.326263
156.028109	205.364227	168.781281
156.080538	202.236176	160.713196
156.132966	193.920135	159.854889
156.185395	208.263397	168.914795
156.237824	216.369629	170.612335
156.290253	196.895599	170.516968
156.342682	200.195312	157.794952
156.395110	205.898285	171.489716
156.447539	200.767517	158.290863
156.499968	195.713043	168.190002
156.552397	211.124420	162.315369
156.604826	217.170715	154.247284
156.657254	207.328796	164.737701
156.709683	196.342468	166.759491
156.762112	206.699371	171.699524
156.814541	198.631287	161.762238
156.866970	202.426910	161.361694
156.919398	222.644806	173.816681
156.971827	202.960968	164.337158
157.024256	209.026337	167.160034
157.076685	207.157135	160.694122
157.129114	211.238861	159.912109
157.181542	212.478638	160.713196
157.233971	197.525024	156.440735
157.286400	221.958160	167.999268
157.338829	218.257904	166.091919
157.391258	203.781128	158.023834
157.443686	201.530457	153.865814
157.496115	206.604004	173.397064
157.548544	203.380585	165.996552
157.600973	201.816559	161.056519
157.653402	202.426910	170.192719
157.705830	202.369690	168.952942
157.758259	213.756561	165.863037
157.810688	212.020874	165.843964
157.863117	184.574127	151.367187
157.915546	201.206207	174.140930
157.967974	203.781128	157.241821
158.020403	207.805634	161.476135
158.072832	198.154449	155.677795
158.125261	204.563141	164.470673
158.177690	213.718414	166.244507
158.230118	205.059052	166.091919
158.282547	209.083557	157.318115
158.334976	198.059082	164.928436
158.387405	203.132629	161.762238
158.439834	219.287872	171.966553
158.492262	197.353363	160.999298
158.544691	194.950104	157.089233
158.597120	201.473236	164.623260
158.649549	207.366943	161.571503
158.701978	207.633972	167.255402
158.754406	206.031799	163.536072
158.806835	205.364227	164.241791
158.859264	219.345093	164.375305
158.911693	231.761932	176.181793
158.964122	198.841095	168.514252
159.016550	208.282471	169.811249
159.068979	215.454102	172.157288
159.121408	205.459595	167.217255
159.173837	203.361511	160.236359
159.226266	203.361511	160.503387
159.278694	208.549500	160.007477
159.331123	200.347900	161.247253
159.383552	204.868317	164.546967
159.435981	203.895569	174.045563
159.488410	204.181671	160.789490
159.540838	199.165344	157.985687
159.593267	215.702057	167.179108
159.645696	211.391449	169.792175
159.698125	204.429626	172.195435
159.750554	209.388733	167.026520
159.802982	225.734711	161.609650
159.855411	220.375061	173.549652
159.907840	207.824707	153.388977
159.960269	207.214355	154.304504
160.012698	214.176178	163.764954
160.065126	221.824646	162.715912
160.117555	199.699402	166.339874
160.169984	201.053619	166.110992
160.222413	202.751160	168.190002
160.274842	206.413269	170.536041
160.327270	200.614929	162.734985
160.379699	211.467743	172.080994
160.432128	204.982758	162.696838
160.484557	213.356018	165.081024
160.536986	200.099945	164.012909
160.589414	221.042633	179.176331
160.641843	211.811066	164.928436
160.694272	210.609436	166.358948
160.746701	204.906464	154.170990
160.799130	203.914642	168.743134
160.851558	211.486816	155.315399
160.903987	203.380585	172.042847
160.956416	207.080841	155.334473
161.008845	208.454132	168.628693
161.061274	210.914612	179.767609
161.113702	212.726593	176.010132
161.166131	217.685699	162.410736
161.218560	205.860138	162.239075
161.270989	217.208862	171.051025
161.323418	207.996368	160.350800
161.375846	213.947296	168.056488
161.428275	210.418701	158.691406
161.480704	212.097168	162.143707
161.533133	210.418701	164.241791
161.585562	191.936493	156.860352
161.637990	217.418671	172.748566
161.690419	209.732056	155.467987
161.742848	216.007233	164.775848
161.795277	206.508636	161.781311
161.847706	209.465027	154.457092
161.900134	208.110809	154.323578
161.952563	198.554993	159.282684
162.004992	200.862885	161.075592
162.057421	189.113617	153.713226
162.109850	194.511414	159.893036
162.162278	203.151703	157.089233
162.214707	204.067230	160.102844
162.267136	207.958221	155.792236
162.319565	209.121704	165.882111
162.371994	207.042694	161.781311
162.424422	202.941895	158.538818
162.476851	199.451447	166.053772
162.529280	219.917297	173.244476
162.581709	199.832916	165.653229
162.634138	197.830200	152.530670
162.686566	211.677551	165.977478
162.738995	215.415955	166.416168
162.791424	207.710266	161.933899
162.843853	212.726593	159.988403
162.896282	204.219818	155.448914
162.948710	209.255219	160.217285
163.001139	205.574036	167.179108
163.053568	218.830109	168.075562
163.105997	208.168030	152.854919
163.158426	209.197998	170.288086
163.210854	207.710266	163.440704
163.263283	197.830200	160.026550
163.315712	205.020905	168.209076
163.368141	207.386017	163.478851
163.420570	200.576782	156.555176
163.472998	200.920105	151.157379
163.525427	212.001801	173.206329
163.577856	209.064484	156.841278
163.630285	198.783875	162.086487
163.682714	208.301544	167.198181
163.735142	198.326111	161.972046
163.787571	200.729370	159.645081
163.840000	213.947296	166.378021
163.892429	203.952789	162.906647
163.944858	202.121735	159.130096
163.997286	192.203522	151.557922
164.049715	202.655792	168.476105
164.102144	214.939117	166.893005
164.154573	208.950043	164.890289
164.207002	204.124451	166.435242
164.259430	212.135315	173.683167
164.311859	211.410522	162.925720
164.364288	214.118958	185.737610
164.416717	199.356079	164.699554
164.469146	203.952789	163.726807
164.521574	199.031830	155.811310
164.574003	209.808350	161.819458
164.626432	205.669403	174.465179
164.678861	206.756592	158.920288
164.731290	203.895569	153.865814
164.783718	209.503174	173.740387
164.836147	214.614868	168.380737
164.888576	219.898224	169.620514
164.941005	216.732025	167.922974
164.993434	208.244324	161.304474
165.045862	208.873749	166.168213
165.098291	213.909149	160.636902
165.150720	209.503174	162.525177
165.203149	206.813812	167.560577
165.255578	199.966431	160.884857
165.308006	204.772949	159.835815
165.360435	207.843781	153.846741
165.412864	215.892792	163.097382
165.465293	212.116241	163.917542
165.517722	208.454132	165.824890
165.570150	197.601318	158.119202
165.622579	214.271545	168.323517
165.675008	226.020813	156.974792
165.727437	213.146210	166.492462
165.779866	213.260651	163.974762
165.832294	212.554932	169.296265
165.884723	211.048126	169.048309
165.937152	196.533203	160.293579
165.989581	207.386017	162.467957
166.042010	206.069946	163.707733
166.094438	200.710297	157.375336
166.146867	207.920074	168.972015
166.199296	207.843781	158.405304
166.251725	203.399658	158.805847
166.304154	200.595856	162.048340
166.356582	212.554932	157.127380
166.409011	203.094482	167.617798
166.461440	186.462402	158.157349
166.513869	210.762024	156.250000
166.566298	207.252502	171.222687
166.618726	212.669373	171.508789
166.671155	214.767456	166.034698
166.723584	216.579437	154.399872
166.776013	204.067230	161.056519
166.828442	209.770203	161.170959
166.880870	207.691193	163.459778
166.933299	204.963684	158.424377
166.985728	202.045441	164.127350
167.038157	204.734802	163.135529
167.090586	217.514038	163.173676
167.143014	209.350586	175.304413
167.195443	210.590363	167.636871
167.247872	218.219757	163.383484
167.300301	207.881927	160.865784
167.352730	215.930939	162.067413
167.405158	209.445953	162.334442
167.457587	203.037262	158.290863
167.510016	219.974518	176.963806
167.562445	210.647583	164.699554
167.614874	201.683044	159.759521
167.667302	201.950073	161.781311
167.719731	207.824707	165.977478
167.772160	205.097198	172.786713
167.824589	199.413300	151.844025
167.877018	196.170807	168.113708
167.929446	195.770264	159.282684
167.981875	210.018158	160.446167
168.034304	206.279755	167.503357
168.086733	216.178894	163.555145
168.139162	219.573975	168.724060
168.191590	209.712982	156.364441
168.244019	211.467743	166.816711
168.296448	203.933716	170.612335
168.348877	212.745667	170.288086
168.401306	210.323334	168.399811
168.453734	201.606750	154.571533
168.506163	204.200745	156.326294
168.558592	206.966400	168.380737
168.611021	200.271606	168.552399
168.663450	208.988190	151.958466
168.715878	204.143524	161.304474
168.768307	193.462372	156.402588
168.820736	204.067230	166.950226
168.873165	220.470428	167.999268
168.925594	201.168060	155.868530
168.978022	203.990936	160.751343
169.030451	206.451416	156.269073
169.082880	216.579437	162.410736
169.135309	218.791962	172.004700
169.187738	217.266083	157.661438
169.240166	201.282501	169.429779
169.292595	200.061798	162.353516
169.345024	196.075439	156.574249
169.397453	214.843750	167.865753
169.449882	209.388733	175.132751
169.502310	217.189789	168.342590
169.554739	193.386078	157.260895
169.607168	208.206177	166.435242
169.659597	207.195282	160.369873
169.712026	214.862823	161.895752
169.764454	196.189880	154.323578
169.816883	200.748444	165.691376
169.869312	200.691223	158.576965
169.921741	221.042633	163.516998
169.974170	214.977264	165.653229
170.026598	205.936432	157.890320
170.079027	209.026337	163.993835
170.131456	209.922791	170.536041
170.183885	191.421509	162.963867
170.236314	198.726654	170.497894
170.288742	204.315186	156.402588
170.341171	201.587677	157.089233
170.393600	194.034576	173.454285
170.446029	204.353333	168.685913
170.498458	200.061798	163.536072
170.550886	207.538605	165.328979
170.603315	215.091705	165.386200
170.655744	210.361481	171.737671
170.708173	214.805603	167.255402
170.760602	207.424164	164.508820
170.813030	211.734772	165.233612
170.865459	203.590393	166.416168
170.917888	206.851959	164.260864
170.970317	204.811096	166.034698
171.022746	212.173462	162.391663
171.075174	207.633972	160.369873
171.127603	216.388702	167.198181
171.180032	209.980011	170.593262
171.232461	203.571320	154.476166
171.284890	190.429687	159.645081
171.337318	206.489563	156.307220
171.389747	210.895538	164.585114
171.442176	203.113556	159.149170
171.494605	203.990936	174.713135
171.547034	219.078064	168.018341
171.599462	199.985504	147.762299
171.651891	209.808350	167.465210
171.704320	205.383301	165.386200
171.756749	205.936432	166.683197
171.809178	200.805664	162.296295
171.861606	208.377838	153.102875
171.914035	203.075409	171.585083
171.966464	203.399658	157.337189
172.018893	212.726593	167.217255
172.071322	206.794739	164.318085
172.123750	195.426941	168.323517
172.176179	211.486816	161.380768
172.228608	204.143524	162.734985
172.281037	212.497711	169.315338
172.333466	196.723938	169.792175
172.385894	200.176239	157.413483
172.438323	205.612183	158.462524
172.490752	200.881958	164.222717
172.543181	199.089050	154.762268
172.595610	185.985565	155.487061
172.648038	202.312469	161.476135
172.700467	201.034546	172.023773
172.752896	199.508667	173.797607
172.805325	212.516785	169.830322
172.857754	208.683014	163.192749
172.910182	219.821930	166.320801
172.962611	205.783844	160.903931
173.015040	207.443237	160.560608
173.067469	214.519501	173.568726
173.119898	202.560425	169.658661
173.172326	214.977264	166.816711
173.224755	209.445953	173.282623
173.277184	210.475922	160.503387
173.329613	212.497711	160.617828
173.382042	199.184418	158.023834
173.434470	206.928253	158.214569
173.486899	212.020874	175.018311
173.539328	206.832886	169.353485
173.591757	204.467773	164.833069
173.644186	207.424164	167.160034
173.696614	211.086273	163.288116
173.749043	212.173462	172.519684
173.801472	213.680267	163.841248
173.853901	204.391479	167.942047
173.906330	202.331543	166.454315
173.958758	211.963654	167.846680
174.011187	211.296082	161.819458
174.063616	198.268890	160.846710
174.116045	200.424194	162.963867
174.168474	211.582184	161.724091
174.220902	207.672119	171.260834
174.273331	189.743042	164.432526
174.325760	198.154449	163.478851
174.378189	209.655762	169.181824
174.430618	207.328796	164.718628
174.483046	214.576721	164.928436
174.535475	191.478729	149.116516
174.587904	209.865570	170.249939
174.640333	209.465027	159.091949
174.692762	212.726593	166.854858
174.745190	190.429687	157.928467
174.797619	218.009949	173.072815
174.850048	217.361450	169.868469
174.902477	217.151642	162.830353
174.954906	210.266113	169.849396
175.007334	220.489502	159.549713
175.059763	212.135315	162.620544
175.112192	215.568542	176.029205
175.164621	198.917389	161.914825
175.217050	204.830170	171.642303
175.269478	207.214355	168.190002
175.321907	203.056335	167.446136
175.374336	211.257935	168.590546
175.426765	208.778381	160.808563
175.479194	205.173492	169.715881
175.531622	219.364166	169.773102
175.584051	193.557739	166.339874
175.636480	203.227997	166.950226
175.688909	221.519470	167.732239
175.741338	200.862885	163.574219
175.793766	219.764709	171.623230
175.846195	205.707550	144.805908
175.898624	193.595886	149.765015
175.951053	217.304230	167.427063
176.003482	215.244293	157.127380
176.055910	210.781097	162.124634
176.108339	217.266083	166.664124
176.160768	209.579468	165.786743
176.213197	209.159851	165.157318
176.265626	199.165344	158.634186
176.318054	217.475891	175.285339
176.370483	197.200775	161.914825
176.422912	209.655762	159.187317
176.475341	208.969116	168.991089
176.527770	215.740204	171.642303
176.580198	217.609406	168.819427
176.632627	208.168030	163.497925
176.685056	216.712952	167.999268
176.737485	211.772919	174.255371
176.789914	214.920044	169.601440
176.842342	209.465027	159.492493
176.894771	208.053589	161.590576
176.947200	210.819244	159.263611
176.999629	210.800171	152.168274
177.052058	209.064484	160.751343
177.104486	208.415985	162.448883
177.156915	202.865601	159.606934
177.209344	192.489624	167.751312
177.261773	210.018158	172.786713
177.314202	215.091705	154.018402
177.366630	217.704773	166.835785
177.419059	213.489532	166.625977
177.471488	205.936432	169.754028
177.523917	202.503204	162.734985
177.576346	208.168030	166.969299
177.628774	212.230682	160.007477
177.681203	212.726593	178.413391
177.733632	209.980011	162.086487
177.786061	201.034546	163.650513
177.838490	198.650360	156.841278
177.890918	211.334229	168.666840
177.943347	212.612152	175.285339
177.995776	210.971832	167.884827
178.048205	206.222534	162.467957
178.100634	204.124451	163.497925
178.153062	203.723907	160.388947
178.205491	214.099884	165.805817
178.257920	215.644836	160.541534
178.310349	203.685760	167.083740
178.362778	216.617584	172.061920
178.415206	204.734802	161.190033
178.467635	209.274292	165.786743
178.520064	196.876526	151.844025
178.572493	200.595856	167.160034
178.624922	216.884613	163.650513
178.677350	215.358734	175.571442
178.729779	211.734772	162.639618
178.782208	216.808319	171.546936
178.834637	207.157135	168.228149
178.887066	203.723907	157.642365
178.939494	208.454132	165.748596
178.991923	205.669403	167.331696
179.044352	206.279755	157.546997
179.096781	206.184387	170.421600
179.149210	208.988190	160.503387
179.201638	208.759308	170.860291
179.254067	206.985474	164.585114
179.306496	208.091736	160.808563
179.358925	216.159821	158.596039
179.411354	212.612152	163.478851
179.463782	216.159821	173.587799
179.516211	217.037201	165.729523
179.568640	213.050842	166.244507
179.621069	206.108093	171.585083
179.673498	216.178894	157.718658
179.725926	202.884674	155.372620
179.778355	202.140808	161.075592
179.830784	214.157104	172.042847
179.883213	206.108093	157.909393
179.935642	205.459595	163.307190
179.988070	209.007263	159.339905
180.040499	217.533112	155.925751
180.092928	208.778381	155.944824
180.145357	203.990936	159.835815
180.197786	206.775665	165.176392
180.250214	206.260681	165.596008
180.302643	207.557678	163.917542
180.355072	214.633942	168.056488
180.407501	208.911896	172.080994
180.459930	202.693939	157.756805
180.512358	214.233398	164.241791
180.564787	208.873749	160.160065
180.617216	207.157135	165.424347
180.669645	211.734772	166.988373
180.722074	209.598541	168.743134
180.774502	209.255219	161.476135
180.826931	223.274231	160.465240
180.879360	217.971802	179.996490
180.931789	205.669403	166.416168
180.984218	205.345154	170.764923
181.036646	211.009979	171.871185
181.089075	203.552246	154.285431
181.141504	206.165314	166.110992
181.193933	198.841095	171.813965
181.246362	212.116241	165.557861
181.298790	209.980011	166.568756
181.351219	205.326080	168.170929
181.403648	206.565857	163.898468
181.456077	205.841064	160.923004
181.508506	218.238831	159.587860
181.560934	201.931000	165.786743
181.613363	215.835571	158.386230
181.665792	208.892822	163.345337
181.718221	207.958221	174.751282
181.770650	206.928253	161.418915
181.823078	206.642151	150.203705
181.875507	198.459625	164.241791
181.927936	212.745667	174.884796
181.980365	206.832886	162.658691
182.032794	217.380524	161.991119
182.085222	206.279755	156.726837
182.137651	207.500458	157.623291
182.190080	206.642151	168.876648
182.242509	203.590393	165.081024
182.294938	204.162598	162.563324
182.347366	218.582153	162.830353
182.399795	218.048096	169.200897
182.452224	208.454132	168.113708
182.504653	204.334259	164.127350
182.557082	200.634003	163.707733
182.609510	208.358765	161.247253
182.661939	210.342407	168.266296
182.714368	204.105377	168.590546
182.766797	205.287933	168.743134
182.819226	203.857422	173.892975
182.871654	217.704773	169.506073
182.924083	194.721222	163.249969
182.976512	199.108124	156.917572
183.028941	200.672150	162.582397
183.081370	209.197998	159.873962
183.133798	204.067230	154.762268
183.186227	211.791992	167.598724
183.238656	200.386047	153.522491
183.291085	204.811096	163.269043
183.343514	208.587646	160.121918
183.395942	195.846558	159.606934
183.448371	214.424133	167.770386
183.500800	209.846497	163.478851
183.553229	210.533142	171.260834
183.605658	207.061768	163.917542
183.658086	197.010040	155.124664
183.710515	202.827454	160.312653
183.762944	209.102631	164.299011
183.815373	199.813843	158.252716
183.867802	215.415955	164.299011
183.920230	199.718475	163.993835
183.972659	207.653046	170.574188
184.025088	202.980042	162.200928
184.077517	193.500519	159.435272
184.129946	211.143494	166.625977
184.182374	207.462311	166.397095
184.234803	219.173431	178.127289
184.287232	202.980042	170.917511
184.339661	202.407837	164.928436
184.392090	210.456848	168.285370
184.444518	209.121704	157.375336
184.496947	207.653046	165.939331
184.549376	212.306976	167.560577
184.601805	216.026306	177.688599
184.654234	202.388763	158.176422
184.706662	209.617615	173.931122
184.759091	203.094482	161.857605
184.811520	199.775696	160.636902
184.863949	198.688507	165.767670
184.916378	207.424164	148.925781
184.968806	198.516846	169.315338
185.021235	205.154419	172.481537
185.073664	205.364227	168.457031
185.126093	208.358765	157.203674
185.178522	219.554901	169.925690
185.230950	203.876495	155.143738
185.283379	216.236115	161.914825
185.335808	202.369690	160.026550
185.388237	204.219818	171.051025
185.440666	214.996338	181.121826
185.493094	214.004517	166.797638
185.545523	209.064484	159.072876
185.597952	204.296112	162.315369
185.650381	206.718445	153.884888
185.702810	205.307007	158.214569
185.755238	194.225311	165.023804
185.807667	206.375122	162.429810
185.860096	196.933746	163.459778
185.912525	208.625793	165.138245
185.964954	204.792023	159.435272
186.017382	206.909180	157.337189
186.069811	202.293396	165.500641
186.122240	201.320648	164.546967
186.174669	208.034515	161.399841
186.227098	202.713013	157.184601
186.279526	207.061768	170.688629
186.331955	212.306976	171.356201
186.384384	203.113556	167.560577
186.436813	201.206207	158.634186
186.489242	215.492249	162.010193
186.541670	202.293396	160.961151
186.594099	208.587646	171.012878
186.646528	218.429565	167.484283
186.698957	206.565857	158.691406
186.751386	204.010010	172.653198
186.803814	208.225250	169.162750
186.856243	195.369720	167.160034
186.908672	213.661194	164.051056
186.961101	197.868347	159.111023
187.013530	219.535828	161.991119
187.065958	208.702087	160.007477
187.118387	209.293365	167.007446
187.170816	209.865570	171.108246
187.223245	217.514038	167.789459
187.275674	215.072632	172.863007
187.328102	207.405090	155.200958
187.380531	216.064453	169.258118
187.432960	207.672119	173.683167
187.485389	214.271545	175.685883
187.537818	203.495026	164.985657
187.590246	203.666687	182.094574
187.642675	203.933716	161.380768
187.695104	194.664001	163.307190
187.747533	197.582245	156.860352
187.799962	214.538574	165.653229
187.852390	212.440491	165.805817
187.904819	214.157104	157.527924
187.957248	205.516815	163.669586
188.009677	215.930939	156.726837
188.062106	209.655762	171.718597
188.114534	202.808380	161.170959
188.166963	205.478668	166.206360
188.219392	204.811096	162.525177
188.271821	221.939087	178.184509
188.324250	207.328796	165.195465
188.376678	206.413269	172.348022
188.429107	200.748444	159.721375
188.481536	217.304230	166.893005
188.533965	197.048187	156.250000
188.586394	213.584900	161.399841
188.638822	210.247040	160.999298
188.691251	192.565918	159.511566
188.743680	203.838348	163.803101
188.796109	204.639435	169.773102
188.848538	204.391479	159.378052
188.900966	219.497681	173.397064
188.953395	218.448639	176.525116
189.005824	206.871033	173.244476
189.058253	206.031799	160.369873
189.110682	201.244354	164.833069
189.163110	214.538574	156.040192
189.215539	201.816559	165.748596
189.267968	207.538605	162.124634
189.320397	213.928223	163.211823
189.372826	215.339661	173.225403
189.425254	215.263367	168.762207
189.477683	208.511353	167.598724
189.530112	205.707550	162.563324
189.582541	204.601288	159.549713
189.634970	205.097198	152.568817
189.687398	211.181641	167.102814
189.739827	207.901001	158.405304
189.792256	215.587616	164.432526
189.844685	208.263397	166.225433
189.897114	204.582214	159.931183
189.949542	193.958282	160.465240
190.001971	191.497803	147.609711
190.054400	227.336884	170.574188
190.106829	213.947296	173.797607
190.159258	198.860168	161.666870
190.211686	207.500458	165.748596
190.264115	203.838348	168.571472
190.316544	210.914612	155.868530
190.368973	209.560394	166.606903
190.421402	212.211609	173.416138
190.473830	210.437775	153.942108
190.526259	223.598480	174.884796
190.578688	211.868286	168.495178
190.631117	199.260712	161.914825
190.683546	202.827454	172.958374
190.735974	205.287933	156.574249
190.788403	205.535889	162.010193
190.840832	204.582214	167.198181
190.893261	206.031799	157.299042
190.945690	207.557678	161.819458
190.998118	222.587585	162.849426
191.050547	201.377869	163.860321
191.102976	229.797363	178.813934
191.155405	220.298767	166.320801
191.207834	221.271515	174.255371
191.260262	223.655701	167.579651
191.312691	212.116241	171.966553
191.365120	205.554962	160.560608
191.417549	203.342438	166.931152
191.469978	198.001862	161.209106
191.522406	216.083527	165.309906
191.574835	207.672119	152.835846
191.627264	204.772949	155.925751
191.679693	201.148987	166.702271
191.732122	215.930939	171.337128
191.784550	207.099915	161.495209
191.836979	212.287903	165.538788
191.889408	202.541351	166.969299
191.941837	203.113556	168.056488
191.994266	216.274261	165.081024
192.046694	201.072693	163.459778
192.099123	218.429565	168.571472
192.151552	203.971863	162.315369
192.203981	211.086273	156.536102
192.256410	204.963684	166.091919
192.308838	219.268799	173.320770
192.361267	198.268890	155.715942
192.413696	203.571320	157.756805
192.466125	209.732056	170.307159
192.518554	210.723877	164.756775
192.570982	214.653015	160.427094
192.623411	203.247070	158.195496
192.675840	207.424164	165.805817
192.728269	221.519470	171.070099
192.780698	208.969116	175.075531
192.833126	212.059021	163.192749
192.885555	209.407806	178.966522
192.937984	213.489532	170.745850
192.990413	218.639374	160.827637
193.042842	206.050873	167.732239
193.095270	211.257935	156.192780
193.147699	205.821991	164.451599
193.200128	209.579468	156.383514
193.252557	216.789246	173.091888
193.304986	222.873688	160.503387
193.357414	210.685730	166.568756
193.409843	198.955536	166.702271
193.462272	214.271545	164.318085
193.514701	201.072693	160.446167
193.567130	207.519531	156.211853
193.619558	200.328827	170.001984
193.671987	208.835602	157.661438
193.724416	207.881927	172.424316
193.776845	207.824707	160.007477
193.829274	208.606720	166.893005
193.881702	213.470459	169.639587
193.934131	219.726562	167.522430
193.986560	201.396942	170.173645
194.038989	207.996368	172.367096
194.091418	204.143524	160.350800
194.143846	208.663940	158.405304
194.196275	221.977234	161.914825
194.248704	213.737488	166.397095
194.301133	209.007263	170.078278
194.353562	209.102631	163.955688
194.405990	206.012726	166.130066
194.458419	200.271606	160.560608
194.510848	196.495056	156.116486
194.563277	205.211639	168.838501
194.615706	198.574066	168.838501
194.668134	202.884674	166.912079
194.720563	206.470490	160.541534
194.772992	196.743011	165.214539
194.825421	208.339691	163.745880
194.877850	208.950043	172.634125
194.930278	216.464996	168.685913
194.982707	212.879181	162.200928
195.035136	206.146240	161.991119
195.087565	204.200745	164.318085
195.139994	204.353333	157.680511
195.192422	207.309723	158.634186
195.244851	214.004517	163.650513
195.297280	201.950073	160.675049
195.349709	203.285217	163.917542
195.402138	207.996368	168.628693
195.454566	210.533142	158.882141
195.506995	213.794708	159.893036
195.559424	211.124420	155.582428
195.611853	207.214355	171.813965
195.664282	201.339722	165.081024
195.716710	195.980072	153.999329
195.769139	217.380524	167.980194
195.821568	199.699402	167.636871
195.873997	225.086212	162.715912
195.926426	198.230743	163.555145
195.978854	207.347870	158.863068
196.031283	201.759338	154.724121
196.083712	205.192566	164.070129
196.136141	208.778381	169.639587
196.188570	197.410583	159.072876
196.240998	199.699402	160.865784
196.293427	203.704834	165.805817
196.345856	216.045380	154.609680
196.398285	209.274292	170.135498
196.450714	213.871002	161.705017
196.503142	225.677490	172.939301
196.555571	193.481445	164.451599
196.608000	202.102661	171.318054
196.660429	213.603973	172.691345
196.712858	205.841064	166.187286
196.765286	204.257965	160.446167
196.817715	202.198029	162.296295
196.870144	219.001770	169.696808
196.922573	214.958191	171.566010
196.975002	209.598541	163.650513
197.027430	212.726593	164.299011
197.079859	206.336975	173.301697
197.132288	207.614899	165.290833
197.184717	208.778381	163.497925
197.237146	197.429657	154.304504
197.289574	212.001801	169.372559
197.342003	207.729340	160.045624
197.394432	195.026398	159.301758
197.446861	202.007294	166.053772
197.499290	197.544098	159.606934
197.551718	207.653046	160.884857
197.604147	212.936401	171.489716
197.656576	214.672089	168.571472
197.709005	209.579468	154.495239
197.761434	215.682983	163.440704
197.813862	202.922821	166.225433
197.866291	202.140808	152.645111
197.918720	196.781158	164.051056
197.971149	188.751221	158.786774
198.023578	193.233490	167.465210
198.076006	204.124451	170.116425
198.128435	200.214386	162.601471
198.180864	211.811066	164.890289
198.233293	196.495056	167.541504
198.285722	194.091797	161.457062
198.338150	196.723938	156.497955
198.390579	206.184387	160.617828
198.443008	206.489563	166.625977
198.495437	207.595825	165.977478
198.547866	209.274292	171.775818
198.600294	207.386017	164.852142
198.652723	197.963715	163.440704
198.705152	206.108093	163.040161
198.757581	203.418732	164.413452
198.810010	201.702118	165.500641
198.862438	200.099945	161.247253
198.914867	212.631226	176.353455
198.967296	208.263397	168.666840
199.019725	211.524963	160.884857
199.072154	196.590424	168.514252
199.124582	207.195282	156.459808
199.177011	211.162567	161.628723
199.229440	199.203491	165.195465
199.281869	219.154358	171.642303
199.334298	202.598572	168.571472
199.386726	210.189819	165.405273
199.439155	205.993652	176.525116
199.491584	204.143524	162.696838
199.544013	199.775696	159.397125
199.596442	205.593109	158.863068
199.648870	211.791992	158.271790
199.701299	199.584961	165.519714
199.753728	199.394226	159.759521
199.806157	207.366943	161.800385
199.858586	210.113525	171.413422
199.911014	208.358765	167.770386
199.963443	218.200684	174.560547
200.015872	217.227936	177.021027
200.068301	200.157166	166.072845
200.120730	211.067200	168.895721
200.173158	219.764709	168.170929
200.225587	202.579498	152.950287
200.278016	215.454102	158.672333
200.330445	195.560455	153.636932
200.382874	214.061737	168.056488
200.435302	201.663971	163.173676
200.487731	202.655792	159.301758
200.540160	193.138123	164.489746
200.592589	205.497742	161.876678
200.645018	224.075317	167.579651
200.697446	209.121704	170.688629
200.749875	193.176270	157.432556
200.802304	194.873810	161.609650
200.854733	204.086304	167.865753
200.907162	205.535889	171.928406
200.959590	208.168030	162.544250
201.012019	205.402374	146.846771
201.064448	212.669373	154.991150
201.116877	213.432312	168.647766
201.169306	214.920044	161.399841
201.221734	202.655792	157.566071
201.274163	203.609467	160.942078
201.326592	207.214355	170.402527
201.379021	219.497681	170.955658
201.431450	209.903717	157.299042
201.483878	213.546753	170.364380
201.536307	208.168030	160.064697
201.588736	211.296082	155.868530
201.641165	204.715729	157.909393
201.693594	209.560394	154.170990
201.746022	203.075409	160.598755
201.798451	208.568573	154.685974
201.850880	201.625824	165.939331
201.903309	204.772949	164.852142
201.955738	215.530396	168.056488
202.008166	203.590393	162.048340
202.060595	200.557709	162.010193
202.113024	217.952728	159.358978
202.165453	209.312439	172.748566
202.217882	202.255249	168.457031
202.270310	205.688477	164.451599
202.322739	209.045410	155.353546
202.375168	208.244324	169.963837
202.427597	215.911865	164.451599
202.480026	203.533173	161.247253
202.532454	203.418732	160.236359
202.584883	207.080841	159.263611
202.637312	207.386017	154.571533
202.689741	214.118958	153.656006
202.742170	204.105377	155.391693
202.794598	197.963715	159.149170
202.847027	210.056305	160.484314
202.899456	216.617584	161.666870
202.951885	201.568604	161.800385
203.004314	213.603973	167.465210
203.056742	204.296112	162.734985
203.109171	211.200714	159.683228
203.161600	208.244324	163.249969
203.214029	211.372375	166.587830
203.266458	198.707581	160.331726
203.318886	202.503204	166.969299
203.371315	203.533173	165.119171
203.423744	210.723877	182.781219
203.476173	203.208923	172.557831
203.528602	204.582214	152.168274
203.581030	197.410583	163.364410
203.633459	209.159851	178.432465
203.685888	213.775635	169.906616
203.738317	205.745697	162.773132
203.790746	210.514069	152.168274
203.843174	212.879181	167.102814
203.895603	201.091766	167.045593
203.948032	207.939148	165.195465
204.000461	204.849243	170.040131
204.052890	208.740234	164.470673
204.105318	201.873779	155.868530
204.157747	208.187103	173.568726
204.210176	205.898285	162.162781
204.262605	216.331482	169.277191
204.315034	215.759277	161.857605
204.367462	208.492279	172.939301
204.419891	210.933685	157.222748
204.472320	203.018188	151.329041
204.524749	206.317902	171.585083
204.577178	207.424164	158.748627
204.629606	210.666656	170.841217
204.682035	216.464996	158.996582
204.734464	211.677551	163.459778
204.786893	205.726624	165.500641
204.839322	198.307037	167.770386
204.891750	216.884613	163.536072
204.944179	203.151703	162.849426
204.996608	198.917389	162.811279
205.049037	194.873810	160.999298
205.101466	207.309723	159.225464
205.153894	203.628540	162.296295
205.206323	205.745697	163.478851
205.258752	202.331543	165.233612
205.311181	211.143494	170.478821
205.363610	210.056305	162.220001
205.416038	204.353333	162.506104
205.468467	204.467773	161.457062
205.520896	203.857422	168.437958
205.573325	216.579437	167.083740
205.625754	198.535919	163.021088
205.678182	212.574005	152.816772
205.730611	210.933685	157.661438
205.783040	204.792023	156.230927
205.835469	209.903717	164.833069
205.887898	205.917358	164.508820
205.940326	204.715729	171.108246
205.992755	205.135345	167.407990
206.045184	201.377869	159.034729
206.097613	199.928284	158.004761
206.150042	202.140808	170.326233
206.202470	199.851990	155.143738
206.254899	199.794769	154.972076
206.307328	212.783813	166.912079
206.359757	203.113556	159.530640
206.412186	203.571320	169.162750
206.464614	198.593140	160.121918
206.517043	205.001831	163.326263
206.569472	215.625763	164.794922
206.621901	218.601227	167.236328
206.674330	224.494934	170.841217
206.726758	219.135284	176.124573
206.779187	213.966370	165.843964
206.831616	201.358795	161.170959
206.884045	210.533142	154.724121
206.936474	210.113525	157.985687
206.988902	193.557739	165.157318
207.041331	209.426880	162.048340
207.093760	205.402374	161.514282
207.146189	195.140839	156.650543
207.198618	209.121704	162.582397
207.251046	203.018188	173.530579
207.303475	203.323364	155.925751
207.355904	194.206238	152.568817
207.408333	211.315155	168.609619
207.460762	213.909149	167.217255
207.513190	205.783844	160.884857
207.565619	202.159882	158.958435
207.618048	206.604004	174.312592
207.670477	215.263367	164.718628
207.722906	217.895508	165.805817
207.775334	215.930939	156.822205
207.827763	209.655762	164.184570
207.880192	205.173492	162.181854
207.932621	215.091705	167.694092
207.985050	202.159882	158.615112
208.037478	199.680328	160.961151
208.089907	209.980011	160.999298
208.142336	211.906433	158.863068
208.194765	218.334198	175.056458
208.247194	208.549500	165.462494
208.299622	208.435059	160.732269
208.352051	209.541321	160.617828
208.404480	195.026398	165.519714
208.456909	217.819214	169.773102
208.509338	208.110809	157.222748
208.561766	211.067200	157.718658
208.614195	195.751190	156.707764
208.666624	209.903717	164.203644
208.719053	206.222534	164.184570
208.771482	222.663879	179.519653
208.823910	205.326080	170.497894
208.876339	207.405090	158.710480
208.928768	199.699402	163.516998
208.981197	210.952759	166.606903
209.033626	203.533173	166.378021
209.086054	202.922821	157.470703
209.138483	213.756561	162.582397
209.190912	209.560394	163.440704
209.243341	218.181610	167.884827
209.295770	203.247070	167.369843
209.348198	210.533142	165.767670
209.400627	196.666718	158.214569
209.453056	198.268890	162.792206
209.505485	203.323364	159.034729
209.557914	207.004547	164.089203
209.610342	206.165314	162.429810
209.662771	205.459595	161.113739
209.715200	203.666687	165.748596
209.767629	215.625763	173.530579
209.820058	209.426880	171.108246
209.872486	210.552216	170.764923
209.924915	210.227966	159.931183
209.977344	213.851929	165.309906
210.029773	206.813812	158.290863
210.082202	213.737488	163.288116
210.134630	207.633972	162.639618
210.187059	217.151642	163.574219
210.239488	211.391449	163.059235
210.291917	206.413269	177.478790
210.344346	215.988159	157.012939
210.396774	206.375122	153.884888
210.449203	207.653046	161.876678
210.501632	220.108032	165.863037
210.554061	194.931030	155.277252
210.606490	203.113556	165.729523
210.658918	194.377899	159.645081
210.711347	209.827423	175.247192
210.763776	211.086273	165.061951
210.816205	214.767456	162.563324
210.868634	201.950073	160.408020
210.921062	194.454193	161.743164
210.973491	208.187103	160.064697
211.025920	200.004578	159.244537
211.078349	204.124451	168.380737
211.130778	213.012695	163.230896
211.183206	217.952728	168.647766
211.235635	212.478638	159.587860
211.288064	217.857361	172.653198
211.340493	196.857452	162.200928
211.392922	211.696625	167.274475
211.445350	192.928314	162.982941
211.497779	215.702057	154.190063
211.550208	198.154449	161.685944
211.602637	206.871033	171.718597
211.655066	205.497742	159.645081
211.707494	207.138062	170.288086
211.759923	204.200745	175.342560
211.812352	201.683044	159.149170
211.864781	203.800201	164.260864
211.917210	203.189850	154.590607
211.969638	199.794769	160.064697
212.022067	200.214386	173.912048
212.074496	209.522247	165.576935
212.126925	205.039978	156.250000
212.179354	205.154419	166.854858
212.231782	206.089020	165.767670
212.284211	212.993622	169.200897
212.336640	205.135345	158.214569
212.389069	209.064484	161.247253
212.441498	195.846558	159.721375
212.493926	212.039948	168.895721
212.546355	212.173462	163.059235
212.598784	195.960999	165.843964
212.651213	204.639435	168.380737
212.703642	214.176178	164.127350
212.756070	194.854736	152.511597
212.808499	205.078125	167.522430
212.860928	203.437805	150.394440
212.913357	211.715698	160.961151
212.965786	205.364227	166.225433
213.018214	213.470459	159.721375
213.070643	209.999084	159.912109
213.123072	205.345154	169.010162
213.175501	211.963654	159.740448
213.227930	221.481323	172.386169
213.280358	209.026337	168.838501
213.332787	206.317902	165.023804
213.385216	201.034546	156.497955
213.437645	209.712982	163.688660
213.490074	204.734802	159.835815
213.542502	208.702087	165.519714
213.594931	202.255249	167.770386
213.647360	214.576721	161.705017
213.699789	197.677612	167.217255
213.752218	205.173492	161.285400
213.804646	198.764801	153.217316
213.857075	216.484070	163.192749
213.909504	208.625793	172.462463
213.961933	212.364197	177.955627
214.014362	202.713013	160.903931
214.066790	189.533234	159.225464
214.119219	204.639435	162.181854
214.171648	205.116272	162.391663
214.224077	209.159851	164.928436
214.276506	230.789185	181.465149
214.328934	212.287903	169.353485
214.381363	198.345184	168.075562
214.433792	221.805573	176.696777
214.486221	209.255219	150.928497
214.538650	205.936432	168.704987
214.591078	200.653076	161.666870
214.643507	203.971863	167.827606
214.695936	188.846588	169.391632
214.748365	204.010010	168.418884
214.800794	213.871002	162.677765
214.853222	202.732086	155.143738
214.905651	201.377869	158.557892
214.958080	202.636719	169.181824
215.010509	212.574005	166.397095
215.062938	217.723846	168.800354
215.115366	212.116241	171.546936
215.167795	198.059082	161.705017
215.220224	202.732086	161.819458
215.272653	205.459595	172.080994
215.325082	209.484100	172.824860
215.377510	202.274323	154.476166
215.429939	204.067230	164.012909
215.482368	222.206116	171.070099
215.534797	214.366913	160.808563
215.587226	206.527710	158.519745
215.639654	208.740234	164.089203
215.692083	205.307007	162.963867
215.744512	215.339661	170.574188
215.796941	206.985474	159.816742
215.849370	208.606720	157.890320
215.901798	214.424133	152.702332
215.954227	206.737518	164.337158
216.006656	214.252472	162.448883
216.059085	209.808350	155.544281
216.111514	223.999023	164.833069
216.163942	210.323334	157.909393
216.216371	207.080841	157.356262
216.268800	209.121704	169.944763
216.321229	209.083557	159.893036
216.373658	201.168060	163.192749
216.426086	193.691254	155.754089
216.478515	216.350555	154.190063
216.530944	227.775574	165.882111
216.583373	219.364166	170.555115
216.635802	213.737488	157.527924
216.688230	223.999023	165.386200
216.740659	211.143494	160.331726
216.793088	210.933685	152.626038
216.845517	212.078094	159.072876
216.897946	209.312439	152.626038
216.950374	206.489563	159.149170
217.002803	201.835632	153.846741
217.055232	215.358734	171.585083
217.107661	205.097198	166.416168
217.160090	222.930908	163.516998
217.212518	196.952820	155.124664
217.264947	198.135376	166.587830
217.317376	212.631226	159.358978
217.369805	205.707550	159.587860
217.422234	207.996368	163.421631
217.474662	209.083557	160.427094
217.527091	209.484100	167.236328
217.579520	215.034485	156.402588
217.631949	204.181671	156.764984
217.684378	203.285217	162.868500
217.736806	215.320587	168.991089
217.789235	201.072693	165.519714
217.841664	213.146210	159.931183
217.894093	210.380554	160.484314
217.946522	206.031799	168.704987
217.998950	211.849213	165.328979
218.051379	205.097198	154.991150
218.103808	214.195251	165.214539
218.156237	203.781128	171.451569
218.208666	207.347870	170.917511
218.261094	192.470551	156.745911
218.313523	207.004547	167.465210
218.365952	209.312439	162.296295
218.418381	201.511383	161.514282
218.470810	203.628540	170.192719
218.523238	195.198059	162.563324
218.575667	206.317902	160.789490
218.628096	200.042725	162.982941
218.680525	207.881927	156.440735
218.732954	206.165314	170.249939
218.785382	198.650360	155.620575
218.837811	204.772949	162.677765
218.890240	214.176178	169.467926
218.942669	213.413239	163.898468
218.995098	215.892792	163.593292
219.047526	205.631256	160.083771
219.099955	206.108093	173.587799
219.152384	202.732086	168.495178
219.204813	192.718506	165.882111
219.257242	202.903748	160.560608
219.309670	212.631226	160.675049
219.362099	199.489594	162.792206
219.414528	211.143494	164.489746
219.466957	196.304321	165.233612
219.519386	205.631256	175.247192
219.571814	197.563171	154.457092
219.624243	203.781128	162.487030
219.676672	203.418732	162.162781
219.729101	200.958252	157.527924
219.781530	200.195312	160.751343
219.833958	212.974548	160.903931
219.886387	207.862854	160.484314
219.938816	201.816559	163.879395
219.991245	192.489624	149.440765
220.043674	207.462311	163.440704
220.096102	213.584900	172.042847
220.148531	207.042694	168.342590
220.200960	214.138031	171.775818
220.253389	207.729340	167.465210
220.305818	206.947327	171.852112
220.358246	203.456879	160.121918
220.410675	201.263428	154.151917
220.463104	213.603973	169.105530
220.515533	203.723907	159.873962
220.567962	202.007294	172.386169
220.620390	208.606720	160.598755
220.672819	211.601257	158.615112
220.725248	206.699371	171.985626
220.777677	198.173523	162.258148
220.830106	204.620361	157.775879
220.882534	212.001801	178.585052
220.934963	200.195312	165.100098
220.987392	195.121765	160.751343
221.039821	213.527679	168.685913
221.092250	204.753876	172.100067
221.144678	209.999084	162.258148
221.197107	213.584900	166.759491
221.249536	208.415985	172.061920
221.301965	192.432404	153.694153
221.354394	206.260681	164.470673
221.406822	203.857422	162.067413
221.459251	205.802917	167.579651
221.511680	214.328766	166.969299
221.564109	218.257904	166.606903
221.616538	203.609467	167.694092
221.668966	210.628510	156.364441
221.721395	213.336945	162.963867
221.773824	200.042725	161.437988
221.826253	208.396912	175.228119
221.878682	199.470520	157.012939
221.931110	209.617615	171.337128
221.983539	205.612183	170.097351
222.035968	222.587585	178.413391
222.088397	210.056305	174.961090
222.140826	220.985413	162.334442
222.193254	200.271606	154.514313
222.245683	206.031799	163.497925
222.298112	205.802917	166.931152
222.350541	209.636688	165.405273
222.402970	202.369690	160.808563
222.455398	216.636658	173.034668
222.507827	209.426880	160.198212
222.560256	205.993652	163.955688
222.612685	202.770233	155.754089
222.665114	211.200714	166.149139
222.717542	205.478668	159.873962
222.769971	205.574036	168.094635
222.822400	204.792023	160.541534
222.874829	202.484131	163.497925
222.927258	209.503174	165.824890
222.979686	218.048096	168.476105
223.032115	206.756592	164.871216
223.084544	208.930969	165.042877
223.136973	217.323303	164.566040
223.189402	205.879211	164.871216
223.241830	214.977264	156.803131
223.294259	213.775635	173.244476
223.346688	214.958191	159.778595
223.399117	199.031830	167.636871
223.451546	204.963684	166.873932
223.503974	211.944580	171.527863
223.556403	206.050873	165.214539
223.608832	206.813812	155.868530
223.661261	216.045380	173.282623
223.713690	200.901031	161.819458
223.766118	210.781097	172.042847
223.818547	193.500519	171.890259
223.870976	203.285217	161.495209
223.923405	210.952759	162.086487
223.975834	190.143585	160.236359
224.028262	210.113525	164.184570
224.080691	195.331573	148.525238
224.133120	201.568604	162.868500
224.185549	215.110779	170.669556
224.237978	199.508667	161.037445
224.290406	202.980042	161.457062
224.342835	210.914612	173.931122
224.395264	214.881897	171.604156
224.447693	206.813812	167.808533
224.500122	208.702087	171.108246
224.552550	197.715759	164.184570
224.604979	208.854675	168.514252
224.657408	204.906464	171.680450
224.709837	215.682983	168.514252
224.762266	210.056305	154.972076
224.814694	211.029053	160.713196
224.867123	207.824707	171.775818
224.919552	204.315186	168.342590
224.971981	223.102570	173.740387
225.024410	216.045380	168.724060
225.076838	206.871033	158.824921
225.129267	203.304291	161.781311
225.181696	201.168060	166.015625
225.234125	209.980011	162.925720
225.286554	207.519531	178.546906
225.338982	208.759308	167.617798
225.391411	199.031830	158.691406
225.443840	215.053558	167.770386
225.496269	207.347870	167.942047
225.548698	202.503204	165.328979
225.601126	214.233398	160.350800
225.653555	213.184357	167.675018
225.705984	208.435059	167.255402
225.758413	198.173523	158.767700
225.810842	203.952789	157.775879
225.863270	205.173492	161.495209
225.915699	204.887390	163.326263
225.968128	221.481323	179.405212
226.020557	198.898315	158.977509
226.072986	210.704803	168.952942
226.125414	201.168060	165.042877
226.177843	201.683044	168.762207
226.230272	199.928284	156.326294
226.282701	201.053619	157.241821
226.335130	209.159851	169.467926
226.387558	208.282471	171.031952
226.439987	207.271576	164.432526
226.492416	206.413269	157.966614
226.544845	213.489532	154.838562
226.597274	205.154419	171.470642
226.649702	201.358795	170.326233
226.702131	195.732117	159.435272
226.754560	197.582245	171.527863
226.806989	208.721161	163.650513
226.859418	220.108032	168.190002
226.911846	207.805634	164.432526
226.964275	213.623047	164.260864
227.016704	196.971893	155.887604
227.069133	208.244324	168.800354
227.121562	205.345154	166.015625
227.173990	195.579529	155.448914
227.226419	209.636688	158.634186
227.278848	211.448669	169.124603
227.331277	210.990906	171.012878
227.383706	213.546753	169.487000
227.436134	204.296112	166.702271
227.488563	200.748444	162.620544
227.540992	210.933685	159.416199
227.593421	206.012726	164.661407
227.645850	205.688477	169.868469
227.698278	212.707520	170.478821
227.750707	198.974609	167.560577
227.803136	202.865601	152.702332
227.855565	202.903748	166.053772
227.907994	215.454102	166.873932
227.960422	204.315186	163.917542
228.012851	205.020905	163.135529
228.065280	216.846466	165.596008
228.117709	218.219757	164.222717
228.170138	198.783875	167.140961
228.222566	213.317871	160.331726
228.274995	202.121735	171.661377
228.327424	205.383301	163.745880
228.379853	202.445984	168.418884
228.432282	216.407776	168.647766
228.484710	205.802917	162.773132
228.537139	210.971832	157.508850
228.589568	216.274261	172.424316
228.641997	190.353394	154.285431
228.694426	203.132629	165.405273
228.746854	206.298828	168.342590
228.799283	203.533173	156.784058
228.851712	205.841064	173.988342
228.904141	209.045410	169.544220
228.956570	220.012665	171.260834
229.008998	204.620361	164.146423
229.061427	201.053619	170.745850
229.113856	207.252502	159.282684
229.166285	198.497772	167.675018
229.218714	195.178986	156.536102
229.271142	214.977264	160.045624
229.323571	213.832855	162.544250
229.376000	203.456879	164.394379
229.428429	205.421448	159.339905
229.480858	212.154388	160.446167
229.533286	193.424225	156.230927
229.585715	202.980042	163.822174
229.638144	217.056274	169.715881
229.690573	211.963654	167.961121
229.743002	202.960968	169.639587
229.795430	212.230682	166.587830
229.847859	204.315186	170.001984
229.900288	196.838379	164.146423
229.952717	206.623077	155.124664
230.005146	200.901031	160.789490
230.057574	207.710266	172.386169
230.110003	214.424133	163.097382
230.162432	206.184387	170.364380
230.214861	213.775635	173.282623
230.267290	194.568634	152.168274
230.319718	203.704834	165.462494
230.372147	203.762054	161.914825
230.424576	209.045410	161.457062
230.477005	194.263458	166.835785
230.529434	218.029022	170.459747
230.581862	217.227936	163.707733
230.634291	205.841064	157.451630
230.686720	208.377838	170.135498
230.739149	199.680328	164.012909
230.791578	202.102661	176.239014
230.844006	207.271576	163.555145
230.896435	205.478668	171.337128
230.948864	203.170776	167.560577
231.001293	212.783813	164.165497
231.053722	208.168030	166.378021
231.106150	211.105347	162.334442
231.158579	218.086243	167.713165
231.211008	199.451447	160.942078
231.263437	207.309723	176.811218
231.315866	195.655823	161.380768
231.368294	207.996368	170.516968
231.420723	208.053589	171.146393
231.473152	212.268829	166.740417
231.525581	195.941925	158.329010
231.578010	212.478638	170.898437
231.630438	218.276978	169.754028
231.682867	202.388763	167.961121
231.735296	193.557739	160.598755
231.787725	199.089050	161.800385
231.840154	206.069946	167.312622
231.892582	200.519562	168.647766
231.945011	197.334290	161.705017
231.997440	196.800232	165.824890
232.049869	202.236176	157.203674
232.102298	215.167999	160.789490
232.154726	208.015442	169.715881
232.207155	203.609467	168.113708
232.259584	208.263397	163.707733
232.312013	199.260712	163.364410
232.364442	206.604004	165.824890
232.416870	206.871033	169.334412
232.469299	196.456909	156.021118
232.521728	209.980011	166.130066
232.574157	210.227966	165.481567
232.626586	209.445953	164.794922
232.679014	208.702087	163.936615
232.731443	212.917328	154.762268
232.783872	201.931000	161.323547
232.836301	200.290680	158.882141
232.888730	215.206146	166.893005
232.941158	218.391418	170.173645
232.993587	197.620392	171.222687
233.046016	203.380585	160.846710
233.098445	210.342407	164.070129
233.150874	206.451416	166.168213
233.203302	195.922852	156.116486
233.255731	209.922791	166.740417
233.308160	204.753876	168.514252
233.360589	209.922791	166.568756
233.413018	209.884644	165.290833
233.465446	207.939148	182.552338
233.517875	201.797485	157.184601
233.570304	195.751190	166.873932
233.622733	217.170715	170.688629
233.675162	204.830170	157.279968
233.727590	221.652985	169.849396
233.780019	205.898285	159.492493
233.832448	196.762085	162.715912
233.884877	211.505890	169.773102
233.937306	216.808319	171.775818
233.989734	201.740265	161.285400
234.042163	205.898285	163.097382
234.094592	202.217102	165.958405
234.147021	205.860138	155.162811
234.199450	207.481384	171.794891
234.251878	205.402374	158.576965
234.304307	206.966400	160.942078
234.356736	206.222534	168.685913
234.409165	199.985504	156.269073
234.461594	209.465027	166.263580
234.514022	206.718445	174.961090
234.566451	220.661163	155.811310
234.618880	219.669342	175.094604
234.671309	194.969177	160.236359
234.723738	203.361511	157.394409
234.776166	200.405121	156.936646
234.828595	199.890137	166.358948
234.881024	219.707489	169.868469
234.933453	203.781128	174.503326
234.985882	200.595856	164.299011
235.038310	207.080841	164.718628
235.090739	204.048157	158.634186
235.143168	207.805634	157.318115
235.195597	208.816528	169.906616
235.248026	210.590363	166.053772
235.300454	192.337036	151.290894
235.352883	199.527740	170.707703
235.405312	196.762085	160.694122
235.457741	204.238892	158.348083
235.510170	204.734802	157.051086
235.562598	219.097137	173.873901
235.615027	207.214355	158.615112
235.667456	213.985443	156.307220
235.719885	217.742920	170.803070
235.772314	208.873749	164.813995
235.824742	205.936432	156.116486
235.877171	209.064484	167.579651
235.929600	203.590393	160.865784
235.982029	195.064545	161.342621
236.034458	202.579498	164.318085
236.086886	214.004517	157.947540
236.139315	204.658508	154.552460
236.191744	207.519531	165.443420
236.244173	204.868317	174.121857
236.296602	201.644897	162.200928
236.349030	210.647583	165.309906
236.401459	207.233429	170.440674
236.453888	212.440491	160.427094
236.506317	202.255249	162.506104
236.558746	210.514069	169.086456
236.611174	214.958191	166.912079
236.663603	206.260681	164.794922
236.716032	205.154419	162.105560
236.768461	192.794800	162.506104
236.820890	218.181610	158.653259
236.873318	198.307037	161.743164
236.925747	212.612152	161.399841
236.978176	215.740204	167.541504
237.030605	200.023651	166.397095
237.083034	209.331512	159.225464
237.135462	213.565826	159.664154
237.187891	207.557678	159.759521
237.240320	212.345123	161.190033
237.292749	209.732056	161.151886
237.345178	204.677582	161.266327
237.397606	208.683014	173.969269
237.450035	197.105408	157.146454
237.502464	211.963654	172.519684
237.554893	207.939148	166.320801
237.607322	205.249786	162.773132
237.659750	202.102661	161.819458
237.712179	200.424194	162.315369
237.764608	195.217133	160.808563
237.817037	205.440521	161.762238
237.869466	206.565857	159.263611
237.921894	210.533142	166.053772
237.974323	197.486877	162.925720
238.026752	207.290649	168.075562
238.079181	204.849243	156.517029
238.131610	195.178986	159.950256
238.184038	221.767426	171.489716
238.236467	199.623108	161.094666
238.288896	194.549561	173.263550
238.341325	205.497742	164.394379
238.393754	216.827393	167.217255
238.446182	203.037262	165.481567
238.498611	200.729370	158.863068
238.551040	207.214355	160.312653
238.603469	212.841034	177.211761
238.655898	204.353333	162.048340
238.708326	202.102661	156.326294
238.760755	201.644897	162.830353
238.813184	208.110809	167.541504
238.865613	207.920074	169.029236
238.918042	194.931030	164.299011
238.970470	202.388763	162.315369
239.022899	215.034485	161.609650
239.075328	205.268860	165.214539
239.127757	209.598541	160.121918
239.180186	204.162598	168.190002
239.232614	207.901001	169.887543
239.285043	201.644897	154.933929
239.337472	204.849243	167.274475
239.389901	213.832855	173.130035
239.442330	207.557678	161.876678
239.494758	210.914612	161.762238
239.547187	201.644897	163.421631
239.599616	209.503174	173.645020
239.652045	223.293304	162.811279
239.704474	211.372375	163.288116
239.756902	212.078094	165.462494
239.809331	201.377869	162.448883
239.861760	205.688477	174.961090
239.914189	204.010010	164.031982
239.966618	202.121735	160.503387
240.019046	199.851990	161.514282
240.071475	210.323334	166.110992
240.123904	212.478638	162.067413
240.176333	199.222565	166.072845
240.228762	207.462311	171.833038
240.281190	194.835663	148.849487
240.333619	208.282471	165.252686
240.386048	209.045410	168.571472
240.438477	202.941895	168.113708
240.490906	213.565826	164.585114
240.543334	206.604004	176.486969
240.595763	203.990936	163.764954
240.648192	217.056274	159.950256
240.700621	208.015442	165.023804
240.753050	206.871033	158.653259
240.805478	206.565857	160.388947
240.857907	212.631226	164.203644
240.910336	219.783783	170.555115
240.962765	191.936493	146.217346
241.015194	213.756561	160.598755
241.067622	201.168060	167.922974
241.120051	216.732025	167.713165
241.172480	212.383270	170.593262
241.224909	203.247070	162.868500
241.277338	206.413269	163.745880
241.329766	209.426880	166.530609
241.382195	217.514038	162.563324
241.434624	221.004486	169.467926
241.487053	195.789337	148.010254
241.539482	198.631287	157.337189
241.591910	212.230682	161.380768
241.644339	210.571289	168.762207
241.696768	207.099915	157.470703
241.749197	204.505920	168.094635
241.801626	210.075378	166.358948
241.854054	204.334259	167.198181
241.906483	200.767517	163.555145
241.958912	203.304291	167.083740
242.011341	201.110840	168.571472
242.063770	210.094452	173.225403
242.116198	202.255249	170.116425
242.168627	213.470459	162.048340
242.221056	207.767487	159.511566
242.273485	204.086304	160.522461
242.325914	210.437775	156.669617
242.378342	200.138092	162.677765
242.430771	214.691162	169.334412
242.483200	198.001862	160.751343
242.535629	204.467773	163.192749
242.588058	193.309784	161.933899
242.640486	219.631195	163.688660
242.692915	203.590393	161.285400
242.745344	234.832764	170.230865
242.797773	208.225250	159.225464
242.850202	211.219788	162.677765
242.902630	201.206207	161.495209
242.955059	208.568573	164.909363
243.007488	213.375092	173.225403
243.059917	192.871094	158.958435
243.112346	205.879211	159.740448
243.164774	212.421417	166.778564
243.217203	205.669403	160.903931
243.269632	208.854675	160.408020
243.322061	208.206177	174.522400
243.374490	203.227997	164.203644
243.426918	201.530457	164.146423
243.479347	208.587646	162.525177
243.531776	207.443237	170.230865
243.584205	208.663940	166.130066
243.636634	201.320648	161.457062
243.689062	207.405090	157.814026
243.741491	197.429657	164.031982
243.793920	212.135315	167.484283
243.846349	224.552155	159.492493
243.898778	205.478668	163.993835
243.951206	207.691193	172.634125
244.003635	204.086304	166.587830
244.056064	203.018188	169.792175
244.108493	215.625763	165.863037
244.160922	210.933685	170.707703
244.213350	211.696625	162.162781
244.265779	199.241638	167.427063
244.318208	205.192566	166.873932
244.370637	203.304291	169.658661
244.423066	201.530457	160.980225
244.475494	198.001862	155.162811
244.527923	205.535889	166.702271
244.580352	209.465027	170.536041
244.632781	217.857361	161.876678
244.685210	202.980042	161.380768
244.737638	205.593109	159.797668
244.790067	206.413269	165.500641
244.842496	206.336975	165.710449
244.894925	205.478668	166.225433
244.947354	195.159912	171.337128
244.999782	201.358795	166.587830
245.052211	207.595825	151.367187
245.104640	198.936462	157.985687
245.157069	201.644897	161.972046
245.209498	195.369720	152.492523
245.261926	204.277039	166.950226
245.314355	207.538605	176.296234
245.366784	211.639404	158.672333
245.419213	210.342407	162.792206
245.471642	203.056335	161.609650
245.524070	211.544037	158.309937
245.576499	194.149017	153.846741
245.628928	205.860138	158.805847
245.681357	197.868347	164.432526
245.733786	211.753845	163.936615
245.786214	205.955505	167.999268
245.838643	199.680328	157.203674
245.891072	210.819244	153.865814
245.943501	198.669434	155.429840
245.995930	215.148926	177.612305
246.048358	205.001831	159.473419
246.100787	203.742981	160.465240
246.153216	200.157166	172.386169
246.205645	210.151672	176.944733
246.258074	210.227966	166.893005
246.310502	210.170746	162.677765
246.362931	194.835663	167.198181
246.415360	208.053589	165.920258
246.467789	210.399628	161.724091
246.520218	214.538574	168.857574
246.572646	215.892792	172.767639
246.625075	199.584961	162.010193
246.677504	210.571289	161.571503
246.729933	209.846497	163.288116
246.782362	211.257935	163.326263
246.834790	213.336945	166.091919
246.887219	215.282440	155.029297
246.939648	206.222534	164.852142
246.992077	209.217072	165.328979
247.044506	212.802887	166.702271
247.096934	214.252472	173.416138
247.149363	218.830109	162.906647
247.201792	202.636719	165.596008
247.254221	207.328796	157.871246
247.306650	219.287872	165.443420
247.359078	191.287994	164.146423
247.411507	216.045380	158.443451
247.463936	209.617615	167.064667
247.516365	212.326050	171.756744
247.568794	214.862823	170.288086
247.621222	199.890137	157.451630
247.673651	207.862854	165.290833
247.726080	207.691193	154.361725
247.778509	203.800201	153.312683
247.830938	212.059021	162.677765
247.883366	213.890076	172.176361
247.935795	218.391418	157.852173
247.988224	205.650330	164.966583
248.040653	211.505890	161.876678
248.093082	208.454132	162.467957
248.145510	223.979950	172.653198
248.197939	195.903778	154.361725
248.250368	213.527679	176.067352
248.302797	204.925537	171.794891
248.355226	214.099884	162.906647
248.407654	214.519501	169.620514
248.460083	201.911926	163.574219
248.512512	211.086273	170.001984
248.564941	205.154419	163.459778
248.617370	205.516815	164.012909
248.669798	207.386017	171.279907
248.722227	201.568604	169.048309
248.774656	208.530426	167.160034
248.827085	214.920044	163.059235
248.879514	213.966370	159.797668
248.931942	205.459595	165.061951
248.984371	206.489563	164.070129
249.036800	226.974487	154.628754
249.089229	201.931000	160.140991
249.141658	212.249756	154.933929
249.194086	206.356049	162.773132
249.246515	207.653046	155.830383
249.298944	208.034515	164.852142
249.351373	217.456818	167.694092
249.403802	211.391449	161.132812
249.456230	209.484100	170.078278
249.508659	205.307007	164.318085
249.561088	212.898254	170.040131
249.613517	205.020905	165.519714
249.665946	211.982727	164.985657
249.718374	205.116272	159.969330
249.770803	205.097198	163.955688
249.823232	208.339691	173.568726
249.875661	205.821991	159.606934
249.928090	211.811066	161.495209
249.980518	206.222534	163.440704
250.032947	216.979980	162.143707
250.085376	203.781128	160.198212
250.137805	195.388794	163.383484
250.190234	213.317871	160.140991
250.242662	201.072693	162.448883
250.295091	209.255219	164.566040
250.347520	195.293427	163.993835
250.399949	195.045471	163.898468
250.452378	210.533142	168.457031
250.504806	209.083557	170.822144
250.557235	207.290649	169.258118
250.609664	216.159821	168.972015
250.662093	215.663910	168.952942
250.714522	213.756561	175.647736
250.766950	214.500427	163.002014
250.819379	200.672150	162.982941
250.871808	208.740234	166.091919
250.924237	217.685699	169.162750
250.976666	198.040009	160.942078
251.029094	211.849213	178.546906
251.081523	213.947296	167.808533
251.133952	217.399597	161.380768
251.186381	212.631226	169.029236
251.238810	204.715729	162.811279
251.291238	219.631195	163.841248
251.343667	199.813843	159.721375
251.396096	221.748352	167.160034
251.448525	203.132629	155.372620
251.500954	200.824738	155.811310
251.553382	204.048157	162.296295
251.605811	209.560394	158.767700
251.658240	210.628510	166.797638
251.710669	204.410553	169.219971
251.763098	207.748413	161.170959
251.815526	212.764740	160.293579
251.867955	202.636719	162.525177
251.920384	205.936432	170.078278
251.972813	205.936432	160.236359
252.025242	215.053558	157.661438
252.077670	197.906494	159.893036
252.130099	209.026337	166.072845
252.182528	203.800201	164.146423
252.234957	210.018158	169.601440
252.287386	208.110809	158.576965
252.339814	210.552216	161.285400
252.392243	211.925507	162.792206
252.444672	221.176147	172.710419
252.497101	204.563141	162.429810
252.549530	207.290649	164.470673
252.601958	217.933655	167.732239
252.654387	218.162537	164.508820
252.706816	204.792023	157.432556
252.759245	205.440521	164.337158
252.811674	214.595795	177.497864
252.864102	193.424225	159.378052
252.916531	199.527740	167.503357
252.968960	203.781128	170.402527
253.021389	190.143585	147.132874
253.073818	191.879272	161.972046
253.126246	204.906464	172.348022
253.178675	208.892822	160.770416
253.231104	190.601349	151.653290
253.283533	219.802856	165.958405
253.335962	208.263397	167.160034
253.388390	192.470551	157.966614
253.440819	205.097198	166.091919
253.493248	203.227997	160.408020
253.545677	211.486816	172.805786
253.598106	199.718475	165.863037
253.650534	208.358765	167.465210
253.702963	209.674835	165.920258
253.755392	220.699310	162.601471
253.807821	212.192535	163.822174
253.860250	211.486816	166.988373
253.912678	204.105377	165.157318
253.965107	197.372437	159.320831
254.017536	210.571289	156.574249
254.069965	201.625824	166.740417
254.122394	192.508698	163.173676
254.174822	201.168060	167.713165
254.227251	208.759308	160.465240
254.279680	211.334229	169.563293
254.332109	213.108063	159.835815
254.384538	211.486816	162.315369
254.436966	193.290710	165.462494
254.489395	205.402374	161.495209
254.541824	192.527771	162.544250
254.594253	214.767456	166.835785
254.646682	201.644897	163.230896
254.699110	203.361511	165.576935
254.751539	215.759277	161.151886
254.803968	197.868347	159.435272
254.856397	224.361420	167.751312
254.908826	209.674835	165.538788
254.961254	196.552277	158.367157
255.013683	216.503143	167.617798
255.066112	198.154449	167.160034
255.118541	214.843750	169.124603
255.170970	201.606750	161.361694
255.223398	202.999115	163.726807
255.275827	202.083588	160.655975
255.328256	207.366943	154.781342
255.380685	210.876465	172.405243
255.433114	206.985474	157.203674
255.485542	208.320618	169.963837
255.537971	204.162598	172.061920
255.590400	205.650330	155.029297
255.642829	208.606720	168.018341
255.695258	201.148987	161.132812
255.747686	210.590363	168.399811
255.800115	211.105347	172.061920
255.852544	221.843719	156.764984
255.904973	208.606720	164.623260
255.957402	204.200745	163.269043
256.009830	202.236176	166.587830
256.062259	204.124451	172.977448
256.114688	185.699463	165.367126
256.167117	199.298859	166.244507
256.219546	197.353363	163.764954
256.271974	224.609375	168.495178
256.324403	197.334290	163.154602
256.376832	211.734772	164.890289
256.429261	211.353302	174.064636
256.481690	208.396912	168.704987
256.534118	200.881958	159.435272
256.586547	203.456879	158.290863
256.638976	224.876404	166.664124
256.691405	209.312439	167.331696
256.743834	208.568573	161.037445
256.796262	208.072662	160.331726
256.848691	204.811096	160.522461
256.901120	200.748444	168.399811
256.953549	203.742981	171.966553
257.005978	202.293396	163.803101
257.058406	216.922760	160.045624
257.110835	209.083557	172.615051
257.163264	206.470490	164.241791
257.215693	199.031830	162.429810
257.268122	212.116241	166.645050
257.320550	217.227936	168.552399
257.372979	202.560425	164.699554
257.425408	212.326050	166.072845
257.477837	195.789337	170.192719
257.530266	210.933685	171.203613
257.582694	205.154419	167.121887
257.635123	210.876465	162.792206
257.687552	204.639435	171.356201
257.739981	197.715759	160.942078
257.792410	200.119019	163.555145
257.844838	215.568542	163.135529
257.897267	203.590393	173.587799
257.949696	208.435059	160.446167
258.002125	199.050903	157.012939
258.054554	205.707550	169.620514
258.106982	208.797455	162.124634
258.159411	195.426941	158.901215
258.211840	205.821991	164.127350
258.264269	207.328796	169.601440
258.316698	196.285248	160.980225
258.369126	207.843781	162.105560
258.421555	222.167969	159.053802
258.473984	209.083557	170.993805
258.526413	211.296082	165.843964
258.578842	201.931000	159.797668
258.631270	202.388763	174.655914
258.683699	206.127167	163.784027
258.736128	206.394196	161.991119
258.788557	212.860107	168.495178
258.840986	201.530457	161.285400
258.893414	206.165314	167.217255
258.945843	208.892822	155.830383
258.998272	209.655762	175.724030
259.050701	218.257904	166.416168
259.103130	197.544098	166.454315
259.155558	207.748413	160.675049
259.207987	207.557678	169.696808
259.260416	196.189880	158.576965
259.312845	211.048126	161.228180
259.365274	211.105347	160.484314
259.417702	207.080841	159.893036
259.470131	211.391449	172.653198
259.522560	202.903748	153.732300
259.574989	211.067200	161.743164
259.627418	206.356049	159.263611
259.679846	205.078125	157.661438
259.732275	208.492279	166.816711
259.784704	212.135315	162.162781
259.837133	214.424133	163.803101
259.889562	213.317871	161.380768
259.941990	205.726624	174.045563
259.994419	219.058990	165.157318
260.046848	207.710266	151.729584
260.099277	213.260651	160.789490
260.151706	207.729340	156.154633
260.204134	207.824707	164.852142
260.256563	204.048157	168.209076
260.308992	202.121735	163.078308
260.361421	200.309753	160.121918
260.413850	202.865601	166.034698
260.466278	204.467773	156.688690
260.518707	202.121735	165.042877
260.571136	193.443298	159.091949
260.623565	201.702118	162.296295
260.675994	224.876404	171.642303
260.728422	197.563171	165.767670
260.780851	207.729340	160.770416
260.833280	195.312500	158.176422
260.885709	215.358734	171.546936
260.938138	223.197937	168.247223
260.990566	210.418701	162.868500
261.042995	212.936401	161.323547
261.095424	210.418701	154.476166
261.147853	208.816528	163.974762
261.200282	215.835571	170.707703
261.252710	203.857422	158.748627
261.305139	209.007263	163.726807
261.357568	211.162567	161.018372
261.409997	197.525024	158.443451
261.462426	210.361481	164.070129
261.514854	200.672150	169.792175
261.567283	204.257965	160.007477
261.619712	207.252502	155.525208
261.672141	203.514099	171.012878
261.724570	207.881927	167.846680
261.776998	209.503174	156.879425
261.829427	209.903717	166.168213
261.881856	208.969116	168.552399
261.934285	210.247040	163.784027
261.986714	206.718445	168.190002
262.039142	211.830139	158.996582
262.091571	212.059021	164.356232
262.144000	214.538574	164.527893
262.196429	208.797455	166.568756
262.248858	199.356079	159.320831
262.301286	215.930939	163.516998
262.353715	197.658539	162.544250
262.406144	211.048126	154.228210
262.458573	199.012756	167.465210
262.511002	206.413269	160.846710
262.563430	214.958191	167.331696
262.615859	204.792023	161.819458
262.668288	195.407867	149.822235
262.720717	224.533081	172.405243
262.773146	202.941895	159.320831
262.825574	212.783813	164.508820
262.878003	210.018158	157.375336
262.930432	206.336975	159.950256
262.982861	201.416016	162.887573
263.035290	207.996368	169.868469
263.087718	207.767487	163.078308
263.140147	198.936462	161.666870
263.192576	198.574066	161.399841
263.245005	205.154419	166.378021
263.297434	215.721130	159.988403
263.349862	212.936401	167.598724
263.402291	212.898254	176.162720
263.454720	208.301544	162.544250
263.507149	212.879181	176.963806
263.559578	196.475983	164.775848
263.612006	197.696686	156.288147
263.664435	212.001801	164.127350
263.716864	203.742981	171.966553
263.769293	211.963654	172.424316
263.821722	211.505890	154.762268
263.874150	204.029083	171.241760
263.926579	204.010010	165.290833
263.979008	220.909119	170.879364
264.031437	212.497711	159.549713
264.083866	200.920105	164.203644
264.136294	206.928253	163.612366
264.188723	199.890137	154.304504
264.241152	200.405121	163.688660
264.293581	196.590424	166.225433
264.346010	207.614899	164.070129
264.398438	206.642151	167.140961
264.450867	199.832916	162.010193
264.503296	211.334229	169.563293
264.555725	201.644897	172.882080
264.608154	209.827423	160.255432
264.660582	218.391418	160.312653
264.713011	215.740204	162.582397
264.765440	203.380585	166.645050
264.817869	202.980042	163.173676
264.870298	213.851929	165.138245
264.922726	203.437805	163.249969
264.975155	205.936432	163.993835
265.027584	207.920074	160.923004
265.080013	202.484131	155.429840
265.132442	209.312439	164.394379
265.184870	214.309692	158.176422
265.237299	213.546753	161.895752
265.289728	214.099884	157.470703
265.342157	197.429657	156.250000
265.394586	217.742920	166.454315
265.447014	210.247040	171.680450
265.499443	206.184387	167.579651
265.551872	205.249786	167.007446
265.604301	204.467773	159.912109
265.656730	195.693970	162.868500
265.709158	210.628510	174.903870
265.761587	211.582184	165.081024
265.814016	216.217041	168.972015
265.866445	211.257935	163.974762
265.918874	210.342407	158.386230
265.971302	211.524963	168.895721
266.023731	213.794708	169.124603
266.076160	202.198029	160.255432
266.128589	219.688416	175.914764
266.181018	203.056335	159.568787
266.233446	208.854675	166.645050
266.285875	202.560425	162.906647
266.338304	210.380554	155.830383
266.390733	203.418732	159.206390
266.443162	199.394226	168.132782
266.495590	214.328766	160.293579
266.548019	198.955536	159.549713
266.600448	200.538635	164.432526
266.652877	208.911896	165.691376
266.705306	212.993622	164.623260
266.757734	205.936432	161.857605
266.810163	221.614838	160.064697
266.862592	210.475922	158.996582
266.915021	201.702118	156.688690
266.967450	185.852051	155.582428
267.019878	217.552185	166.587830
267.072307	194.530487	162.792206
267.124736	208.530426	166.015625
267.177165	207.252502	160.789490
267.229594	216.999054	166.511536
267.282022	197.544098	158.672333
267.334451	218.887329	167.560577
267.386880	215.187073	170.536041
267.439309	204.086304	163.364410
267.491738	213.584900	151.882172
267.544166	201.492310	157.661438
267.596595	219.173431	171.241760
267.649024	215.778351	168.266296
267.701453	202.674866	158.672333
267.753882	206.584930	152.168274
267.806310	213.317871	169.677734
267.858739	206.985474	166.816711
267.911168	208.988190	169.277191
267.963597	200.481415	160.751343
268.016026	209.903717	168.418884
268.068454	217.456818	167.675018
268.120883	200.996399	159.816742
268.173312	201.282501	166.587830
268.225741	194.396973	161.724091
268.278170	216.197968	173.435211
268.330598	215.778351	161.743164
268.383027	201.225281	159.568787
268.435456	213.451385	161.819458
268.487885	208.702087	163.650513
268.540314	201.587677	166.358948
268.592742	196.552277	162.830353
268.645171	209.636688	174.541473
268.697600	217.895508	164.508820
268.750029	205.440521	162.906647
268.802458	207.901001	163.345337
268.854886	208.721161	163.593292
268.907315	201.435089	170.230865
268.959744	210.666656	162.429810
269.012173	201.110840	160.675049
269.064602	207.729340	154.018402
269.117030	206.298828	171.413422
269.169459	215.930939	176.334381
269.221888	197.753906	165.061951
269.274317	199.966431	160.102844
269.326746	204.029083	168.495178
269.379174	213.108063	175.495148
269.431603	204.715729	161.056519
269.484032	221.138000	168.037415
269.536461	204.391479	163.803101
269.588890	213.127136	173.377991
269.641318	208.587646	166.282654
269.693747	205.650330	168.991089
269.746176	205.783844	156.974792
269.798605	198.173523	166.568756
269.851034	199.470520	158.958435
269.903462	197.639465	162.258148
269.955891	197.086334	158.576965
270.008320	209.732056	174.789429
270.060749	198.173523	171.508789
270.113178	209.503174	170.497894
270.165606	202.312469	173.034668
270.218035	205.860138	164.184570
270.270464	206.184387	165.500641
270.322893	205.650330	160.293579
270.375322	210.628510	167.083740
270.427750	227.336884	174.846649
270.480179	205.516815	166.606903
270.532608	203.533173	165.061951
270.585037	215.377808	170.383453
270.637466	216.693878	163.764954
270.689894	216.922760	167.541504
270.742323	197.105408	157.165527
270.794752	214.366913	162.830353
270.847181	206.775665	166.568756
270.899610	199.203491	160.942078
270.952038	201.282501	164.203644
271.004467	199.298859	158.081055
271.056896	212.745667	159.568787
271.109325	206.489563	160.675049
271.161754	202.522278	167.675018
271.214182	193.386078	160.293579
271.266611	203.132629	169.525146
271.319040	201.931000	154.285431
271.371469	208.969116	160.694122
271.423898	213.794708	160.446167
271.476326	207.939148	167.598724
271.528755	207.214355	160.846710
271.581184	220.451355	179.176331
271.633613	206.260681	156.345367
271.686042	204.505920	170.059204
271.738470	193.843842	164.756775
271.790899	210.475922	166.435242
271.843328	217.723846	168.609619
271.895757	199.394226	166.206360
271.948186	203.819275	157.508850
272.000614	211.219788	168.514252
272.053043	198.307037	157.375336
272.105472	208.797455	166.568756
272.157901	207.614899	165.939331
272.210330	217.323303	159.301758
272.262758	205.001831	167.293549
272.315187	211.009979	167.713165
272.367616	198.764801	161.781311
272.420045	212.059021	156.917572
272.472474	206.375122	166.473389
272.524902	211.238861	162.773132
272.577331	211.105347	156.250000
272.629760	208.110809	167.865753
272.682189	213.909149	167.827606
272.734618	208.663940	172.176361
272.787046	204.696655	157.909393
272.839475	203.628540	169.754028
272.891904	204.391479	164.661407
272.944333	207.920074	164.699554
272.996762	213.642120	164.852142
273.049190	203.495026	165.481567
273.101619	202.541351	173.606873
273.154048	213.050842	158.481598
273.206477	207.519531	159.626007
273.258906	195.770264	155.754089
273.311334	199.069977	150.413513
273.363763	196.018219	162.944794
273.416192	202.484131	174.961090
273.468621	206.775665	160.312653
273.521050	191.307068	169.792175
273.573478	206.966400	154.361725
273.625907	205.764771	167.350769
273.678336	201.473236	167.198181
273.730765	220.985413	169.601440
273.783194	224.609375	174.446106
273.835622	197.010040	155.982971
273.888051	207.710266	171.890259
273.940480	197.200775	162.448883
273.992909	219.688416	169.105530
274.045338	195.808411	159.244537
274.097766	202.198029	160.789490
274.150195	209.884644	159.301758
274.202624	207.805634	170.497894
274.255053	194.911957	168.056488
274.307482	202.827454	165.309906
274.359910	206.432343	167.884827
274.412339	208.187103	165.996552
274.464768	206.947327	161.495209
274.517197	212.154388	163.650513
274.569626	216.712952	167.369843
274.622054	201.969147	161.533356
274.674483	194.568634	177.326202
274.726912	208.759308	164.203644
274.779341	207.824707	173.454285
274.831770	205.154419	174.312592
274.884198	202.636719	159.244537
274.936627	219.841003	171.527863
274.989056	218.887329	170.040131
275.041485	205.326080	161.590576
275.093914	209.465027	166.950226
275.146342	212.078094	165.481567
275.198771	203.533173	151.309967
275.251200	203.342438	168.399811
275.303629	211.486816	161.838531
275.356058	194.377899	154.418945
275.408486	205.688477	156.536102
275.460915	208.187103	143.985748
275.513344	204.544067	166.339874
275.565773	225.162506	175.647736
275.618202	206.260681	163.135529
275.670630	211.887360	160.923004
275.723059	207.023621	161.075592
275.775488	205.574036	168.342590
275.827917	207.538605	166.130066
275.880346	214.233398	166.397095
275.932774	210.189819	178.451538
275.985203	197.067261	160.312653
276.037632	209.941864	165.157318
276.090061	208.244324	156.879425
276.142490	199.413300	155.334473
276.194918	201.072693	158.462524
276.247347	209.846497	171.394348
276.299776	200.214386	159.873962
276.352205	206.222534	170.211792
276.404634	213.222504	179.786682
276.457062	202.713013	158.500671
276.509491	203.609467	167.350769
276.561920	201.816559	159.931183
276.614349	202.121735	171.241760
276.666778	209.045410	168.571472
276.719206	213.832855	155.696869
276.771635	203.094482	163.612366
276.824064	200.157166	170.764923
276.876493	195.999146	165.328979
276.928922	189.380646	167.083740
276.981350	217.533112	152.988434
277.033779	203.552246	163.192749
277.086208	221.729279	167.484283
277.138637	202.808380	162.525177
277.191066	211.486816	157.756805
277.243494	208.606720	165.386200
277.295923	198.802948	168.075562
277.348352	216.808319	173.778534
277.400781	215.244293	169.315338
277.453210	195.884705	157.585144
277.505638	199.089050	150.089264
277.558067	205.421448	160.541534
277.610496	215.759277	171.451569
277.662925	215.873718	161.056519
277.715354	208.339691	169.162750
277.767782	205.574036	166.244507
277.820211	210.342407	174.980164
277.872640	196.743011	159.111023
277.925069	219.135284	172.595978
277.977498	202.980042	156.822205
278.029926	206.928253	169.982910
278.082355	208.683014	153.388977
278.134784	201.244354	167.446136
278.187213	213.623047	176.105499
278.239642	200.214386	164.604187
278.292070	187.568665	164.222717
278.344499	200.786591	161.170959
278.396928	187.950134	160.369873
278.449357	205.116272	161.418915
278.501786	205.326080	169.811249
278.554214	203.571320	167.331696
278.606643	208.892822	169.372559
278.659072	208.911896	176.334381
278.711501	205.898285	169.563293
278.763930	197.944641	158.805847
278.816358	206.165314	160.369873
278.868787	199.680328	170.764923
278.921216	212.078094	168.170929
278.973645	203.533173	155.448914
279.026074	212.783813	173.931122
279.078502	211.524963	170.192719
279.130931	219.345093	171.146393
279.183360	207.138062	165.405273
279.235789	212.497711	174.846649
279.288218	208.969116	164.127350
279.340646	209.903717	164.985657
279.393075	207.977295	161.342621
279.445504	201.606750	161.285400
279.497933	202.732086	166.416168
279.550362	209.865570	159.492493
279.602790	215.625763	177.288055
279.655219	205.001831	157.871246
279.707648	205.707550	161.914825
279.760077	195.598602	153.789520
279.812506	209.159851	161.609650
279.864934	199.451447	164.222717
279.917363	199.871063	169.792175
279.969792	207.500458	167.388916
280.022221	212.879181	168.285370
280.074650	201.835632	159.053802
280.127078	197.906494	160.732269
280.179507	197.372437	164.337158
280.231936	200.653076	167.522430
280.284365	207.996368	174.140930
280.336794	198.917389	164.623260
280.389222	209.293365	164.699554
280.441651	210.971832	166.339874
280.494080	191.440582	153.598785
280.546509	214.118958	159.091949
280.598938	203.113556	164.604187
280.651366	201.396942	162.563324
280.703795	215.988159	176.773071
280.756224	201.568604	171.470642
280.808653	208.625793	169.258118
280.861082	216.751099	165.748596
280.913510	219.650269	171.337128
280.965939	200.405121	167.922974
281.018368	206.832886	160.121918
281.070797	198.287964	161.018372
281.123226	207.366943	156.536102
281.175654	198.154449	167.102814
281.228083	203.876495	156.021118
281.280512	216.350555	163.784027
281.332941	201.969147	165.538788
281.385370	203.571320	158.348083
281.437798	202.598572	161.972046
281.490227	210.723877	165.271759
281.542656	208.129883	170.078278
281.595085	206.604004	160.903931
281.647514	209.159851	167.980194
281.699942	204.448700	175.037384
281.752371	220.718384	160.446167
281.804800	203.552246	157.661438
281.857229	197.219849	167.026520
281.909658	213.985443	165.958405
281.962086	204.162598	162.906647
282.014515	202.159882	159.416199
282.066944	210.418701	176.677704
282.119373	209.655762	160.903931
282.171802	206.794739	163.612366
282.224230	197.544098	160.827637
282.276659	210.285187	162.296295
282.329088	200.195312	172.462463
282.381517	199.699402	161.056519
282.433946	210.971832	163.955688
282.486374	209.712982	171.737671
282.538803	201.492310	176.620483
282.591232	200.996399	159.397125
282.643661	203.247070	166.816711
282.696090	208.854675	167.942047
282.748518	211.009979	162.124634
282.800947	217.990875	163.402557
282.853376	197.048187	162.582397
282.905805	216.655731	169.067383
282.958234	201.663971	160.961151
283.010662	202.178955	170.421600
283.063091	200.424194	161.952972
283.115520	209.197998	158.004761
283.167949	208.511353	160.923004
283.220378	208.721161	167.865753
283.272806	204.143524	167.751312
283.325235	201.911926	162.582397
283.377664	208.816528	164.299011
283.430093	199.394226	170.459747
283.482522	208.549500	167.369843
283.534950	210.437775	170.154572
283.587379	210.361481	158.443451
283.639808	194.492340	162.315369
283.692237	203.800201	150.852203
283.744666	211.639404	170.326233
283.797094	205.974579	159.988403
283.849523	203.285217	173.130035
283.901952	224.628448	171.813965
283.954381	198.917389	160.160065
284.006810	210.399628	158.653259
284.059238	212.440491	164.718628
284.111667	208.587646	161.628723
284.164096	204.124451	164.852142
284.216525	215.797424	174.713135
284.268954	201.377869	160.789490
284.321382	204.620361	161.972046
284.373811	215.034485	167.198181
284.426240	209.350586	164.661407
284.478669	210.075378	167.999268
284.531098	208.969116	172.786713
284.583526	199.394226	157.012939
284.635955	210.590363	166.282654
284.688384	211.544037	156.059265
284.740813	213.088989	174.598694
284.793242	206.661224	158.729553
284.845670	206.012726	165.710449
284.898099	196.037292	163.192749
284.950528	209.865570	165.252686
285.002957	211.353302	156.040192
285.055386	197.105408	169.773102
285.107814	200.538635	160.293579
285.160243	214.958191	168.228149
285.212672	212.593079	164.337158
285.265101	220.031738	171.318054
285.317530	205.612183	166.358948
285.369958	202.026367	166.358948
285.422387	207.405090	157.890320
285.474816	206.413269	162.601471
285.527245	214.977264	171.546936
285.579674	211.143494	162.944794
285.632102	210.876465	150.871277
285.684531	196.800232	153.236389
285.736960	204.372406	169.506073
285.789389	208.492279	170.783997
285.841818	207.614899	168.304443
285.894246	220.146179	169.410706
285.946675	218.544006	157.489777
285.999104	207.004547	159.416199
286.051533	205.650330	164.356232
286.103962	200.424194	162.811279
286.156390	204.410553	167.694092
286.208819	210.781097	162.868500
286.261248	199.069977	158.100128
286.313677	199.489594	167.350769
286.366106	214.252472	178.527832
286.418534	213.775635	166.397095
286.470963	196.094513	157.985687
286.523392	194.950104	160.236359
286.575821	209.865570	175.857544
286.628250	206.089020	160.789490
286.680678	201.854706	163.116455
286.733107	205.020905	162.391663
286.785536	210.704803	161.762238
286.837965	216.312408	165.939331
286.890394	207.710266	166.397095
286.942822	214.462280	162.353516
286.995251	204.372406	166.606903
287.047680	200.347900	160.045624
287.100109	208.129883	160.560608
287.152538	201.969147	167.407990
287.204966	204.658508	158.805847
287.257395	209.999084	167.198181
287.309824	205.135345	171.928406
287.362253	204.429626	165.996552
287.414682	203.037262	171.566010
287.467110	204.830170	175.247192
287.519539	213.203430	175.819397
287.571968	205.955505	166.378021
287.624397	217.494965	169.429779
287.676826	217.819214	172.252655
287.729254	197.715759	161.590576
287.781683	212.745667	158.004761
287.834112	195.331573	167.407990
287.886541	213.966370	166.492462
287.938970	200.424194	167.541504
287.991398	211.009979	156.936646
288.043827	196.800232	160.236359
288.096256	216.407776	164.127350
288.148685	215.187073	161.857605
288.201114	198.059082	165.596008
288.253542	211.524963	170.898437
288.305971	205.135345	169.773102
288.358400	208.168030	164.909363
288.410829	201.530457	161.399841
288.463258	200.233459	161.151886
288.515686	210.227966	165.767670
288.568115	213.470459	178.432465
288.620544	213.947296	157.527924
288.672973	212.574005	163.097382
288.725402	196.170807	157.184601
288.777830	216.312408	171.527863
288.830259	206.508636	161.705017
288.882688	207.462311	170.440674
288.935117	204.868317	164.127350
288.987546	204.219818	171.756744
289.039974	197.219849	158.882141
289.092403	206.718445	174.713135
289.144832	212.268829	171.451569
289.197261	216.617584	169.715881
289.249690	193.367004	155.620575
289.302118	210.247040	167.751312
289.354547	200.939178	156.974792
289.406976	215.759277	170.669556
289.459405	206.947327	157.413483
289.511834	198.497772	160.293579
289.564262	202.789307	170.707703
289.616691	212.459564	172.328949
289.669120	204.277039	171.051025
289.721549	203.781128	167.846680
289.773978	216.636658	160.064697
289.826406	209.503174	160.179138
289.878835	201.683044	170.001984
289.931264	216.407776	160.789490
289.983693	201.721191	164.718628
290.036122	208.511353	158.996582
290.088550	202.808380	162.010193
290.140979	208.339691	165.653229
290.193408	207.080841	166.549683
290.245837	207.042694	163.936615
290.298266	216.064453	170.688629
290.350694	196.304321	158.004761
290.403123	199.813843	165.081024
290.455552	202.636719	160.236359
290.507981	216.197968	165.481567
290.560410	201.606750	159.606934
290.612838	203.990936	169.296265
290.665267	208.950043	169.582367
290.717696	196.800232	168.972015
290.770125	214.538574	169.124603
290.822554	204.658508	161.151886
290.874982	203.781128	164.413452
290.927411	207.328796	164.394379
290.979840	206.089020	165.367126
291.032269	209.846497	171.871185
291.084698	214.710236	169.525146
291.137126	198.097229	166.530609
291.189555	200.557709	161.418915
291.241984	211.944580	166.950226
291.294413	215.053558	172.538757
291.346842	197.296143	164.070129
291.399270	211.334229	169.124603
291.451699	214.328766	167.217255
291.504128	200.710297	161.323547
291.556557	202.999115	171.260834
291.608986	207.099915	165.653229
291.661414	200.424194	157.299042
291.713843	211.296082	158.939362
291.766272	205.974579	171.375275
291.818701	208.892822	161.113739
291.871130	211.067200	169.200897
291.923558	197.982788	160.446167
291.975987	209.236145	172.424316
292.028416	217.399597	163.726807
292.080845	206.394196	157.699585
292.133274	206.336975	155.277252
292.185702	209.064484	166.759491
292.238131	200.538635	162.372589
292.290560	187.492371	149.574280
292.342989	196.075439	173.168182
292.395418	204.048157	164.394379
292.447846	199.546814	167.293549
292.500275	212.650299	164.356232
292.552704	199.775696	155.429840
292.605133	205.440521	166.511536
292.657562	193.958282	169.487000
292.709990	208.702087	161.151886
292.762419	207.576752	172.328949
292.814848	219.306946	171.546936
292.867277	205.268860	165.939331
292.919706	210.514069	163.230896
292.972134	207.080841	158.424377
293.024563	208.492279	166.110992
293.076992	210.762024	159.931183
293.129421	207.195282	166.778564
293.181850	209.369659	157.852173
293.234278	198.154449	161.743164
293.286707	197.792053	172.882080
293.339136	215.511322	177.879333
293.391565	203.514099	164.394379
293.443994	215.473175	169.391632
293.496422	198.459625	165.252686
293.548851	207.138062	159.816742
293.601280	204.677582	161.132812
293.653709	206.298828	166.950226
293.706138	221.176147	175.342560
293.758566	216.770172	167.522430
293.810995	200.405121	157.012939
293.863424	208.320618	161.552429
293.915853	209.560394	165.767670
293.968282	197.677612	163.459778
294.020710	198.173523	172.557831
294.073139	213.947296	165.138245
294.125568	213.260651	162.029266
294.177997	204.658508	164.871216
294.230426	208.435059	166.473389
294.282854	192.413330	165.519714
294.335283	206.394196	157.814026
294.387712	220.088959	172.615051
294.440141	202.026367	152.740479
294.492570	208.320618	166.702271
294.544998	210.762024	156.250000
294.597427	210.247040	174.236298
294.649856	214.538574	167.198181
294.702285	204.143524	163.879395
294.754714	198.097229	154.018402
294.807142	211.143494	164.756775
294.859571	199.489594	161.533356
294.912000	214.900970	158.882141
294.964429	190.849304	158.786774
295.016858	206.661224	166.339874
295.069286	203.857422	166.912079
295.121715	196.762085	160.369873
295.174144	208.301544	169.124603
295.226573	219.078064	169.067383
295.279002	200.634003	166.416168
295.331430	203.113556	165.195465
295.383859	203.628540	166.282654
295.436288	206.470490	166.053772
295.488717	208.816528	169.315338
295.541146	201.187134	161.075592
295.593574	201.492310	173.015594
295.646003	221.519470	175.285339
295.698432	215.816498	173.892975
295.750861	205.154419	167.884827
295.803290	209.903717	160.865784
295.855718	219.573975	158.596039
295.908147	206.546783	165.901184
295.960576	214.519501	171.737671
296.013005	202.465057	158.443451
296.065434	202.369690	164.299011
296.117862	214.023590	158.061981
296.170291	204.086304	167.274475
296.222720	201.015472	166.072845
296.275149	221.271515	175.933838
296.327578	211.563110	172.481537
296.380006	206.756592	161.819458
296.432435	185.527802	154.209137
296.484864	216.751099	172.119141
296.537293	192.241669	157.089233
296.589722	197.715759	159.511566
296.642150	195.522308	158.367157
296.694579	212.783813	155.181885
296.747008	213.851929	167.789459
296.799437	209.636688	162.029266
296.851866	208.587646	171.585083
296.904294	209.083557	161.838531
296.956723	207.691193	166.091919
297.009152	207.595825	162.334442
297.061581	207.767487	170.898437
297.114010	201.568604	157.032013
297.166438	211.219788	160.064697
297.218867	219.364166	166.149139
297.271296	208.072662	167.636871
297.323725	210.189819	161.857605
297.376154	220.184326	167.083740
297.428582	206.604004	149.040222
297.481011	205.612183	160.179138
297.533440	202.732086	165.042877
297.585869	203.685760	160.827637
297.638298	213.527679	164.642334
297.690726	195.026398	162.105560
297.743155	205.612183	166.549683
297.795584	196.666718	162.944794
297.848013	195.617676	159.511566
297.900442	218.467712	170.154572
297.952870	203.895569	164.661407
298.005299	203.838348	169.944763
298.057728	206.604004	172.424316
298.110157	204.963684	164.127350
298.162586	214.900970	165.824890
298.215014	207.557678	158.519745
298.267443	200.080872	169.315338
298.319872	206.909180	160.522461
298.372301	202.121735	160.388947
298.424730	205.268860	163.002014
298.477158	199.031830	153.560638
298.529587	205.059052	168.476105
298.582016	197.010040	164.184570
298.634445	198.574066	165.367126
298.686874	194.969177	152.168274
298.739302	213.394165	166.187286
298.791731	205.364227	169.944763
298.844160	202.159882	169.582367
298.896589	196.475983	159.568787
298.949018	201.740265	153.045654
299.001446	208.587646	166.339874
299.053875	198.326111	161.914825
299.106304	200.767517	156.593323
299.158733	213.890076	174.064636
299.211162	210.533142	167.007446
299.263590	205.631256	153.675079
299.316019	211.563110	168.304443
299.368448	219.020844	166.511536
299.420877	215.682983	173.339844
299.473306	195.331573	156.841278
299.525734	201.301575	163.955688
299.578163	205.383301	152.969360
299.630592	229.644775	168.972015
299.683021	206.298828	154.151917
299.735450	203.723907	164.871216
299.787878	197.906494	157.604218
299.840307	203.590393	163.307190
